%OpenBCI Raw EEG Data
%Number of channels = 4
%Sample Rate = 200.0 Hz
%First Column = SampleIndex
%Last Column = Timestamp 
%Other Columns = EEG data in microvolts followed by Accel Data (in G) interleaved with Aux Data
0, 152.06, -265.02, 82.15, 10.12, 0.000, 0.000, 0.000, 15:30:25.402, 1587846625402
1, 158.57, -259.45, 86.92, 20.34, 0.000, 0.000, 0.000, 15:30:25.418, 1587846625418
2, 169.74, -239.23, 100.59, 21.22, 0.000, 0.000, 0.000, 15:30:25.418, 1587846625418
3, 154.12, -259.63, 81.78, 5.24, 0.000, 0.000, 0.000, 15:30:25.431, 1587846625431
4, 144.88, -277.28, 73.99, 12.03, 0.000, 0.000, 0.000, 15:30:25.431, 1587846625431
5, 173.07, -251.97, 99.06, 23.38, 0.000, 0.000, 0.000, 15:30:25.432, 1587846625432
6, 148.63, -259.00, 94.42, 10.91, 0.000, 0.000, 0.000, 15:30:25.432, 1587846625432
7, 143.25, -271.29, 79.27, 16.00, 0.000, 0.000, 0.000, 15:30:25.447, 1587846625447
8, 165.49, -252.70, 98.75, 21.66, 0.000, 0.000, 0.000, 15:30:25.447, 1587846625447
9, 172.51, -257.20, 93.89, 16.58, 0.000, 0.000, 0.000, 15:30:25.461, 1587846625461
10, 151.66, -266.83, 77.58, 8.78, 0.000, 0.000, 0.000, 15:30:25.461, 1587846625461
11, 146.67, -256.27, 95.74, 18.82, 0.000, 0.000, 0.000, 15:30:25.461, 1587846625461
12, 167.17, -246.37, 110.46, 22.35, 0.000, 0.000, 0.000, 15:30:25.461, 1587846625461
13, 150.75, -271.54, 85.51, 6.50, 0.000, 0.000, 0.000, 15:30:25.474, 1587846625474
14, 140.35, -262.90, 90.75, 16.14, 0.000, 0.000, 0.000, 15:30:25.474, 1587846625474
15, 163.20, -252.74, 106.72, 23.08, 0.000, 0.000, 0.000, 15:30:25.490, 1587846625490
16, 147.15, -264.35, 98.46, 7.89, 0.000, 0.000, 0.000, 15:30:25.490, 1587846625490
17, 143.77, -268.03, 86.11, 14.65, 0.000, 0.000, 0.000, 15:30:25.493, 1587846625493
18, 163.26, -264.14, 97.64, 22.72, 0.000, 0.000, 0.000, 15:30:25.493, 1587846625493
19, 161.22, -254.52, 106.06, 13.90, 0.000, 0.000, 0.000, 15:30:25.505, 1587846625505
20, 137.48, -264.97, 87.06, 6.08, 0.000, 0.000, 0.000, 15:30:25.505, 1587846625505
21, 153.59, -252.85, 98.09, 24.35, 0.000, 0.000, 0.000, 15:30:25.522, 1587846625522
22, 161.29, -249.31, 99.69, 24.34, 0.000, 0.000, 0.000, 15:30:25.522, 1587846625522
23, 142.68, -271.24, 92.07, 17.18, 0.000, 0.000, 0.000, 15:30:25.529, 1587846625529
24, 157.43, -261.16, 95.65, 18.14, 0.000, 0.000, 0.000, 15:30:25.529, 1587846625529
25, 168.22, -249.49, 104.01, 22.30, 0.000, 0.000, 0.000, 15:30:25.540, 1587846625540
26, 160.88, -247.39, 101.52, 9.49, 0.000, 0.000, 0.000, 15:30:25.540, 1587846625540
27, 146.41, -262.17, 79.21, 12.38, 0.000, 0.000, 0.000, 15:30:25.550, 1587846625550
28, 151.97, -258.05, 99.58, 23.99, 0.000, 0.000, 0.000, 15:30:25.550, 1587846625550
29, 143.15, -252.51, 105.00, 20.31, 0.000, 0.000, 0.000, 15:30:25.551, 1587846625551
30, 144.70, -270.80, 88.27, 8.24, 0.000, 0.000, 0.000, 15:30:25.551, 1587846625551
31, 152.69, -269.31, 90.96, 22.32, 0.000, 0.000, 0.000, 15:30:25.567, 1587846625567
32, 161.77, -256.92, 109.14, 16.35, 0.000, 0.000, 0.000, 15:30:25.567, 1587846625567
33, 141.54, -270.54, 97.47, 3.87, 0.000, 0.000, 0.000, 15:30:25.580, 1587846625580
34, 139.40, -263.26, 99.95, 18.13, 0.000, 0.000, 0.000, 15:30:25.580, 1587846625580
35, 162.26, -245.75, 107.02, 23.22, 0.000, 0.000, 0.000, 15:30:25.581, 1587846625581
36, 167.18, -247.83, 98.13, 9.20, 0.000, 0.000, 0.000, 15:30:25.581, 1587846625581
37, 137.99, -273.81, 78.19, 12.50, 0.000, 0.000, 0.000, 15:30:25.596, 1587846625596
38, 150.36, -253.45, 102.48, 20.93, 0.000, 0.000, 0.000, 15:30:25.596, 1587846625596
39, 159.18, -257.33, 101.36, 15.61, 0.000, 0.000, 0.000, 15:30:25.610, 1587846625610
40, 143.73, -274.90, 91.63, 9.94, 0.000, 0.000, 0.000, 15:30:25.610, 1587846625610
41, 140.66, -260.96, 97.97, 18.30, 0.000, 0.000, 0.000, 15:30:25.612, 1587846625612
42, 174.62, -238.40, 114.57, 20.26, 0.000, 0.000, 0.000, 15:30:25.612, 1587846625612
43, 156.17, -254.86, 86.89, 9.26, 0.000, 0.000, 0.000, 15:30:25.624, 1587846625624
44, 145.73, -264.65, 89.23, 15.69, 0.000, 0.000, 0.000, 15:30:25.624, 1587846625624
45, 166.83, -243.48, 105.85, 24.26, 0.000, 0.000, 0.000, 15:30:25.658, 1587846625658
46, 139.33, -266.34, 99.85, 11.51, 0.000, 0.000, 0.000, 15:30:25.658, 1587846625658
47, 128.00, -281.04, 83.72, 11.44, 0.000, 0.000, 0.000, 15:30:25.659, 1587846625659
48, 164.28, -257.49, 106.80, 19.40, 0.000, 0.000, 0.000, 15:30:25.659, 1587846625659
49, 173.10, -247.14, 104.37, 18.00, 0.000, 0.000, 0.000, 15:30:25.659, 1587846625659
50, 138.39, -264.05, 89.29, 13.35, 0.000, 0.000, 0.000, 15:30:25.659, 1587846625659
51, 145.97, -255.67, 101.57, 21.13, 0.000, 0.000, 0.000, 15:30:25.661, 1587846625661
52, 163.34, -238.92, 115.17, 17.55, 0.000, 0.000, 0.000, 15:30:25.661, 1587846625661
53, 141.17, -267.70, 87.85, 8.45, 0.000, 0.000, 0.000, 15:30:25.671, 1587846625671
54, 141.85, -274.42, 93.26, 16.58, 0.000, 0.000, 0.000, 15:30:25.671, 1587846625671
55, 153.80, -254.80, 106.02, 28.48, 0.000, 0.000, 0.000, 15:30:25.685, 1587846625685
56, 149.28, -266.57, 99.98, 12.44, 0.000, 0.000, 0.000, 15:30:25.685, 1587846625685
57, 153.01, -251.01, 96.90, 15.90, 0.000, 0.000, 0.000, 15:30:25.700, 1587846625700
58, 164.19, -248.61, 104.82, 25.80, 0.000, 0.000, 0.000, 15:30:25.700, 1587846625700
59, 150.02, -243.19, 104.97, 17.37, 0.000, 0.000, 0.000, 15:30:25.701, 1587846625701
60, 136.73, -262.47, 84.59, 7.15, 0.000, 0.000, 0.000, 15:30:25.701, 1587846625701
61, 153.87, -259.02, 101.28, 19.53, 0.000, 0.000, 0.000, 15:30:25.714, 1587846625714
62, 169.13, -248.27, 118.63, 18.41, 0.000, 0.000, 0.000, 15:30:25.714, 1587846625714
63, 148.60, -264.30, 105.29, 8.97, 0.000, 0.000, 0.000, 15:30:25.730, 1587846625730
64, 143.41, -273.38, 98.79, 18.95, 0.000, 0.000, 0.000, 15:30:25.730, 1587846625730
65, 146.04, -251.93, 116.15, 20.54, 0.000, 0.000, 0.000, 15:30:25.745, 1587846625745
66, 148.92, -249.61, 102.95, 9.10, 0.000, 0.000, 0.000, 15:30:25.745, 1587846625745
67, 131.49, -257.41, 84.31, 13.01, 0.000, 0.000, 0.000, 15:30:25.746, 1587846625746
68, 151.28, -241.62, 101.89, 25.34, 0.000, 0.000, 0.000, 15:30:25.746, 1587846625746
69, 149.95, -247.53, 109.78, 15.30, 0.000, 0.000, 0.000, 15:30:25.761, 1587846625761
70, 127.31, -268.00, 96.96, 13.99, 0.000, 0.000, 0.000, 15:30:25.761, 1587846625761
71, 131.36, -266.11, 124.56, 24.29, 0.000, 0.000, 0.000, 15:30:25.761, 1587846625761
72, 132.45, -255.76, 130.39, 23.35, 0.000, 0.000, 0.000, 15:30:25.761, 1587846625761
73, 113.00, -266.77, 127.66, 6.16, 0.000, 0.000, 0.000, 15:30:25.775, 1587846625775
74, 101.13, -266.07, 131.17, 23.01, 0.000, 0.000, 0.000, 15:30:25.775, 1587846625775
75, 110.33, -256.22, 152.47, 25.64, 0.000, 0.000, 0.000, 15:30:25.791, 1587846625791
76, 106.46, -255.28, 152.59, 14.72, 0.000, 0.000, 0.000, 15:30:25.791, 1587846625791
77, 89.39, -275.91, 134.08, 17.55, 0.000, 0.000, 0.000, 15:30:25.792, 1587846625792
78, 116.13, -249.15, 155.02, 22.84, 0.000, 0.000, 0.000, 15:30:25.792, 1587846625792
79, 115.64, -252.39, 147.41, 18.99, 0.000, 0.000, 0.000, 15:30:25.805, 1587846625805
80, 99.92, -269.33, 123.87, 13.74, 0.000, 0.000, 0.000, 15:30:25.805, 1587846625805
81, 107.66, -258.87, 136.96, 21.22, 0.000, 0.000, 0.000, 15:30:25.821, 1587846625821
82, 119.33, -249.93, 156.06, 21.36, 0.000, 0.000, 0.000, 15:30:25.821, 1587846625821
83, 112.15, -265.93, 141.86, 13.17, 0.000, 0.000, 0.000, 15:30:25.823, 1587846625823
84, 103.32, -268.15, 136.01, 20.13, 0.000, 0.000, 0.000, 15:30:25.823, 1587846625823
85, 115.42, -247.59, 143.70, 20.68, 0.000, 0.000, 0.000, 15:30:25.835, 1587846625835
86, 115.02, -262.36, 133.39, 11.06, 0.000, 0.000, 0.000, 15:30:25.835, 1587846625835
87, 106.03, -286.53, 117.44, 13.50, 0.000, 0.000, 0.000, 15:30:25.851, 1587846625851
88, 117.11, -250.66, 139.69, 25.02, 0.000, 0.000, 0.000, 15:30:25.851, 1587846625851
89, 123.64, -243.70, 147.49, 19.28, 0.000, 0.000, 0.000, 15:30:25.855, 1587846625855
90, 115.17, -268.81, 125.86, 9.79, 0.000, 0.000, 0.000, 15:30:25.855, 1587846625855
91, 107.66, -267.08, 128.68, 20.06, 0.000, 0.000, 0.000, 15:30:25.880, 1587846625880
92, 114.85, -251.04, 144.43, 22.55, 0.000, 0.000, 0.000, 15:30:25.880, 1587846625880
93, 103.39, -271.16, 128.13, 13.58, 0.000, 0.000, 0.000, 15:30:25.881, 1587846625881
94, 105.20, -263.03, 127.84, 16.85, 0.000, 0.000, 0.000, 15:30:25.881, 1587846625881
95, 126.99, -250.46, 140.50, 22.74, 0.000, 0.000, 0.000, 15:30:25.882, 1587846625882
96, 115.26, -263.19, 136.79, 14.94, 0.000, 0.000, 0.000, 15:30:25.882, 1587846625882
97, 112.58, -273.70, 118.22, 11.26, 0.000, 0.000, 0.000, 15:30:25.895, 1587846625895
98, 123.32, -257.03, 140.90, 22.49, 0.000, 0.000, 0.000, 15:30:25.895, 1587846625895
99, 128.37, -256.56, 144.56, 15.29, 0.000, 0.000, 0.000, 15:30:25.910, 1587846625910
100, 107.22, -284.40, 110.34, 9.64, 0.000, 0.000, 0.000, 15:30:25.910, 1587846625910
101, 127.15, -252.45, 129.53, 17.03, 0.000, 0.000, 0.000, 15:30:25.910, 1587846625910
102, 134.74, -241.11, 140.37, 24.76, 0.000, 0.000, 0.000, 15:30:25.910, 1587846625910
103, 115.24, -268.56, 129.96, 5.16, 0.000, 0.000, 0.000, 15:30:25.924, 1587846625924
104, 103.31, -255.93, 128.65, 16.08, 0.000, 0.000, 0.000, 15:30:25.924, 1587846625924
105, 130.28, -249.67, 136.90, 25.05, 0.000, 0.000, 0.000, 15:30:25.940, 1587846625940
106, 133.12, -254.46, 135.43, 11.73, 0.000, 0.000, 0.000, 15:30:25.940, 1587846625940
107, 109.73, -271.94, 114.64, 10.08, 0.000, 0.000, 0.000, 15:30:25.941, 1587846625941
108, 115.75, -258.28, 123.21, 20.89, 0.000, 0.000, 0.000, 15:30:25.941, 1587846625941
109, 131.78, -248.90, 138.17, 13.50, 0.000, 0.000, 0.000, 15:30:25.957, 1587846625957
110, 101.61, -272.64, 118.15, 11.98, 0.000, 0.000, 0.000, 15:30:25.957, 1587846625957
111, 97.49, -285.12, 112.74, 18.10, 0.000, 0.000, 0.000, 15:30:25.971, 1587846625971
112, 122.16, -247.32, 143.78, 20.79, 0.000, 0.000, 0.000, 15:30:25.971, 1587846625971
113, 112.65, -259.70, 126.04, 12.74, 0.000, 0.000, 0.000, 15:30:25.972, 1587846625972
114, 118.96, -271.49, 123.39, 15.67, 0.000, 0.000, 0.000, 15:30:25.972, 1587846625972
115, 129.49, -246.47, 135.22, 22.71, 0.000, 0.000, 0.000, 15:30:25.985, 1587846625985
116, 104.72, -256.35, 124.64, 14.35, 0.000, 0.000, 0.000, 15:30:25.985, 1587846625985
117, 97.80, -279.65, 107.95, 11.80, 0.000, 0.000, 0.000, 15:30:26.001, 1587846626001
118, 113.12, -268.33, 124.92, 21.71, 0.000, 0.000, 0.000, 15:30:26.001, 1587846626001
119, 135.67, -241.36, 142.10, 20.54, 0.000, 0.000, 0.000, 15:30:26.003, 1587846626003
120, 121.51, -270.45, 116.00, 6.70, 0.000, 0.000, 0.000, 15:30:26.003, 1587846626003
121, 113.29, -268.12, 114.00, 21.29, 0.000, 0.000, 0.000, 15:30:26.014, 1587846626014
122, 127.49, -259.76, 122.78, 17.98, 0.000, 0.000, 0.000, 15:30:26.014, 1587846626014
123, 122.43, -264.37, 129.34, 9.09, 0.000, 0.000, 0.000, 15:30:26.032, 1587846626032
124, 111.08, -253.93, 120.39, 16.24, 0.000, 0.000, 0.000, 15:30:26.032, 1587846626032
125, 111.76, -255.18, 128.31, 23.27, 0.000, 0.000, 0.000, 15:30:26.035, 1587846626035
126, 115.86, -258.21, 123.55, 14.05, 0.000, 0.000, 0.000, 15:30:26.035, 1587846626035
127, 107.57, -266.21, 116.46, 13.10, 0.000, 0.000, 0.000, 15:30:26.045, 1587846626045
128, 127.92, -253.58, 129.06, 19.37, 0.000, 0.000, 0.000, 15:30:26.045, 1587846626045
129, 135.44, -259.42, 126.12, 21.15, 0.000, 0.000, 0.000, 15:30:26.060, 1587846626060
130, 116.29, -267.98, 109.28, 10.26, 0.000, 0.000, 0.000, 15:30:26.060, 1587846626060
131, 123.39, -265.86, 114.42, 22.93, 0.000, 0.000, 0.000, 15:30:26.061, 1587846626061
132, 127.18, -260.98, 132.82, 20.36, 0.000, 0.000, 0.000, 15:30:26.061, 1587846626061
133, 109.35, -259.03, 122.79, 12.02, 0.000, 0.000, 0.000, 15:30:26.074, 1587846626074
134, 109.24, -261.20, 109.86, 18.78, 0.000, 0.000, 0.000, 15:30:26.074, 1587846626074
135, 121.41, -264.69, 125.84, 27.88, 0.000, 0.000, 0.000, 15:30:26.090, 1587846626090
136, 130.62, -259.12, 115.62, 15.96, 0.000, 0.000, 0.000, 15:30:26.090, 1587846626090
137, 120.79, -269.57, 121.45, 10.64, 0.000, 0.000, 0.000, 15:30:26.105, 1587846626105
138, 133.40, -257.60, 122.62, 22.52, 0.000, 0.000, 0.000, 15:30:26.105, 1587846626105
139, 123.83, -250.20, 122.51, 15.81, 0.000, 0.000, 0.000, 15:30:26.106, 1587846626106
140, 95.68, -260.22, 103.84, 7.38, 0.000, 0.000, 0.000, 15:30:26.106, 1587846626106
141, 122.78, -258.24, 122.64, 17.15, 0.000, 0.000, 0.000, 15:30:26.121, 1587846626121
142, 134.89, -243.56, 133.89, 23.46, 0.000, 0.000, 0.000, 15:30:26.121, 1587846626121
143, 109.28, -285.53, 105.50, 8.84, 0.000, 0.000, 0.000, 15:30:26.122, 1587846626122
144, 117.33, -259.13, 119.14, 17.44, 0.000, 0.000, 0.000, 15:30:26.122, 1587846626122
145, 122.28, -252.95, 136.25, 19.77, 0.000, 0.000, 0.000, 15:30:26.135, 1587846626135
146, 126.60, -248.56, 134.75, 14.32, 0.000, 0.000, 0.000, 15:30:26.135, 1587846626135
147, 114.93, -261.42, 109.78, 13.14, 0.000, 0.000, 0.000, 15:30:26.150, 1587846626150
148, 131.28, -246.93, 125.81, 22.23, 0.000, 0.000, 0.000, 15:30:26.150, 1587846626150
149, 128.38, -266.79, 119.95, 16.18, 0.000, 0.000, 0.000, 15:30:26.153, 1587846626153
150, 115.22, -265.11, 112.04, 13.17, 0.000, 0.000, 0.000, 15:30:26.153, 1587846626153
151, 114.13, -258.51, 123.92, 20.15, 0.000, 0.000, 0.000, 15:30:26.166, 1587846626166
152, 146.84, -246.86, 130.71, 18.63, 0.000, 0.000, 0.000, 15:30:26.166, 1587846626166
153, 130.14, -255.72, 119.53, 14.26, 0.000, 0.000, 0.000, 15:30:26.180, 1587846626180
154, 111.08, -268.11, 108.67, 16.00, 0.000, 0.000, 0.000, 15:30:26.180, 1587846626180
155, 130.45, -246.35, 125.37, 26.03, 0.000, 0.000, 0.000, 15:30:26.181, 1587846626181
156, 128.36, -277.36, 118.41, 14.62, 0.000, 0.000, 0.000, 15:30:26.181, 1587846626181
157, 114.06, -273.89, 113.87, 8.85, 0.000, 0.000, 0.000, 15:30:26.195, 1587846626195
158, 136.23, -247.27, 122.95, 19.24, 0.000, 0.000, 0.000, 15:30:26.195, 1587846626195
159, 132.88, -258.40, 116.81, 16.02, 0.000, 0.000, 0.000, 15:30:26.210, 1587846626210
160, 124.38, -261.44, 119.87, 8.70, 0.000, 0.000, 0.000, 15:30:26.210, 1587846626210
161, 124.46, -270.15, 110.47, 21.07, 0.000, 0.000, 0.000, 15:30:26.212, 1587846626212
162, 133.70, -257.54, 121.94, 23.26, 0.000, 0.000, 0.000, 15:30:26.212, 1587846626212
163, 122.23, -271.08, 108.40, 12.49, 0.000, 0.000, 0.000, 15:30:26.226, 1587846626226
164, 122.67, -276.52, 102.84, 17.40, 0.000, 0.000, 0.000, 15:30:26.226, 1587846626226
165, 137.88, -250.66, 122.05, 21.30, 0.000, 0.000, 0.000, 15:30:26.241, 1587846626241
166, 137.21, -252.01, 121.54, 10.59, 0.000, 0.000, 0.000, 15:30:26.241, 1587846626241
167, 122.70, -265.24, 104.40, 11.65, 0.000, 0.000, 0.000, 15:30:26.243, 1587846626243
168, 137.00, -257.56, 114.04, 15.73, 0.000, 0.000, 0.000, 15:30:26.243, 1587846626243
169, 138.84, -261.18, 123.10, 16.15, 0.000, 0.000, 0.000, 15:30:26.254, 1587846626254
170, 132.63, -266.93, 112.20, 10.84, 0.000, 0.000, 0.000, 15:30:26.254, 1587846626254
171, 121.48, -267.93, 111.85, 18.75, 0.000, 0.000, 0.000, 15:30:26.271, 1587846626271
172, 141.20, -252.52, 128.69, 21.67, 0.000, 0.000, 0.000, 15:30:26.271, 1587846626271
173, 133.47, -261.71, 113.64, 9.41, 0.000, 0.000, 0.000, 15:30:26.273, 1587846626273
174, 129.73, -277.18, 111.30, 18.44, 0.000, 0.000, 0.000, 15:30:26.273, 1587846626273
175, 148.51, -239.48, 131.38, 22.84, 0.000, 0.000, 0.000, 15:30:26.287, 1587846626287
176, 136.90, -255.22, 110.36, 8.62, 0.000, 0.000, 0.000, 15:30:26.287, 1587846626287
177, 126.18, -272.37, 98.87, 2.19, 0.000, 0.000, 0.000, 15:30:26.300, 1587846626300
178, 138.75, -262.41, 115.63, 17.68, 0.000, 0.000, 0.000, 15:30:26.300, 1587846626300
179, 136.43, -259.13, 118.74, 17.25, 0.000, 0.000, 0.000, 15:30:26.302, 1587846626302
180, 129.87, -269.43, 110.05, 12.19, 0.000, 0.000, 0.000, 15:30:26.302, 1587846626302
181, 134.48, -262.24, 115.51, 22.17, 0.000, 0.000, 0.000, 15:30:26.314, 1587846626314
182, 150.07, -252.58, 123.71, 23.04, 0.000, 0.000, 0.000, 15:30:26.314, 1587846626314
183, 147.90, -262.31, 112.75, 9.48, 0.000, 0.000, 0.000, 15:30:26.331, 1587846626331
184, 120.84, -275.13, 98.11, 12.06, 0.000, 0.000, 0.000, 15:30:26.331, 1587846626331
185, 142.11, -250.58, 119.96, 23.04, 0.000, 0.000, 0.000, 15:30:26.332, 1587846626332
186, 136.01, -252.52, 121.45, 13.07, 0.000, 0.000, 0.000, 15:30:26.332, 1587846626332
187, 121.80, -268.24, 107.28, 12.42, 0.000, 0.000, 0.000, 15:30:26.345, 1587846626345
188, 136.41, -253.37, 109.35, 21.84, 0.000, 0.000, 0.000, 15:30:26.345, 1587846626345
189, 144.13, -249.24, 121.93, 18.64, 0.000, 0.000, 0.000, 15:30:26.360, 1587846626360
190, 137.90, -261.86, 106.40, 11.50, 0.000, 0.000, 0.000, 15:30:26.360, 1587846626360
191, 143.40, -258.14, 112.21, 22.14, 0.000, 0.000, 0.000, 15:30:26.361, 1587846626361
192, 144.02, -258.21, 121.47, 25.04, 0.000, 0.000, 0.000, 15:30:26.361, 1587846626361
193, 127.58, -267.15, 106.19, 9.45, 0.000, 0.000, 0.000, 15:30:26.375, 1587846626375
194, 118.28, -270.34, 96.95, 8.58, 0.000, 0.000, 0.000, 15:30:26.375, 1587846626375
195, 145.49, -245.84, 123.61, 23.12, 0.000, 0.000, 0.000, 15:30:26.391, 1587846626391
196, 151.99, -243.86, 123.81, 12.55, 0.000, 0.000, 0.000, 15:30:26.391, 1587846626391
197, 123.89, -269.26, 106.48, 14.01, 0.000, 0.000, 0.000, 15:30:26.391, 1587846626391
198, 144.14, -254.63, 123.84, 21.93, 0.000, 0.000, 0.000, 15:30:26.391, 1587846626391
199, 159.71, -244.94, 126.31, 18.78, 0.000, 0.000, 0.000, 15:30:26.406, 1587846626406
200, 129.06, -264.85, 103.86, 14.21, 0.000, 0.000, 0.000, 15:30:26.406, 1587846626406
0, 135.73, -265.69, 119.01, 20.96, 0.000, 0.000, 0.000, 15:30:26.408, 1587846626408
1, 157.02, -246.27, 128.61, 17.53, 0.000, 0.000, 0.000, 15:30:26.440, 1587846626440
2, 152.35, -242.43, 118.36, 10.97, 0.000, 0.000, 0.000, 15:30:26.440, 1587846626440
3, 153.82, -257.04, 116.31, 9.78, 0.000, 0.000, 0.000, 15:30:26.441, 1587846626441
4, 172.78, -240.68, 139.64, 20.04, 0.000, 0.000, 0.000, 15:30:26.441, 1587846626441
5, 194.78, -224.65, 148.55, 13.10, 0.000, 0.000, 0.000, 15:30:26.442, 1587846626442
6, 167.73, -216.86, 134.34, 11.60, 0.000, 0.000, 0.000, 15:30:26.442, 1587846626442
7, 195.11, -188.83, 151.38, 25.13, 0.000, 0.000, 0.000, 15:30:26.449, 1587846626449
8, 209.53, -200.91, 145.42, 14.30, 0.000, 0.000, 0.000, 15:30:26.449, 1587846626449
9, 198.96, -199.96, 146.74, 7.62, 0.000, 0.000, 0.000, 15:30:26.472, 1587846626472
10, 197.45, -167.14, 141.23, 16.04, 0.000, 0.000, 0.000, 15:30:26.472, 1587846626472
11, 216.57, -158.04, 138.26, 18.47, 0.000, 0.000, 0.000, 15:30:26.472, 1587846626472
12, 226.37, -180.47, 128.52, 12.31, 0.000, 0.000, 0.000, 15:30:26.472, 1587846626472
13, 204.99, -169.73, 126.45, 16.04, 0.000, 0.000, 0.000, 15:30:26.480, 1587846626480
14, 228.99, -151.19, 135.28, 26.08, 0.000, 0.000, 0.000, 15:30:26.480, 1587846626480
15, 209.64, -188.87, 122.85, 16.27, 0.000, 0.000, 0.000, 15:30:26.497, 1587846626497
16, 183.12, -181.69, 109.58, 11.82, 0.000, 0.000, 0.000, 15:30:26.497, 1587846626497
17, 191.55, -177.97, 127.63, 25.93, 0.000, 0.000, 0.000, 15:30:26.498, 1587846626498
18, 210.71, -167.95, 134.98, 17.68, 0.000, 0.000, 0.000, 15:30:26.498, 1587846626498
19, 160.32, -211.23, 111.70, 12.79, 0.000, 0.000, 0.000, 15:30:26.510, 1587846626510
20, 175.89, -212.72, 104.74, 17.99, 0.000, 0.000, 0.000, 15:30:26.510, 1587846626510
21, 191.93, -177.87, 135.21, 22.84, 0.000, 0.000, 0.000, 15:30:26.525, 1587846626525
22, 159.50, -212.16, 108.59, 12.51, 0.000, 0.000, 0.000, 15:30:26.525, 1587846626525
23, 147.77, -217.12, 105.55, 16.02, 0.000, 0.000, 0.000, 15:30:26.527, 1587846626527
24, 172.80, -188.38, 121.15, 26.35, 0.000, 0.000, 0.000, 15:30:26.527, 1587846626527
25, 162.06, -219.34, 113.03, 10.70, 0.000, 0.000, 0.000, 15:30:26.539, 1587846626539
26, 144.64, -228.93, 101.00, 10.22, 0.000, 0.000, 0.000, 15:30:26.539, 1587846626539
27, 149.14, -215.34, 96.92, 17.54, 0.000, 0.000, 0.000, 15:30:26.555, 1587846626555
28, 165.85, -211.99, 100.44, 12.49, 0.000, 0.000, 0.000, 15:30:26.555, 1587846626555
29, 144.52, -269.60, 58.78, 11.89, 0.000, 0.000, 0.000, 15:30:26.557, 1587846626557
30, 149.07, -224.14, 118.66, 22.78, 0.000, 0.000, 0.000, 15:30:26.557, 1587846626557
31, 139.13, -227.00, 116.66, 22.80, 0.000, 0.000, 0.000, 15:30:26.569, 1587846626569
32, 139.49, -247.86, 103.73, 13.03, 0.000, 0.000, 0.000, 15:30:26.569, 1587846626569
33, 119.89, -262.84, 82.20, 14.31, 0.000, 0.000, 0.000, 15:30:26.586, 1587846626586
34, 128.33, -239.09, 100.96, 19.63, 0.000, 0.000, 0.000, 15:30:26.586, 1587846626586
35, 143.88, -256.44, 96.10, 13.46, 0.000, 0.000, 0.000, 15:30:26.590, 1587846626590
36, 116.25, -283.43, 88.18, 14.39, 0.000, 0.000, 0.000, 15:30:26.590, 1587846626590
37, 127.96, -251.05, 90.38, 21.63, 0.000, 0.000, 0.000, 15:30:26.604, 1587846626604
38, 139.33, -250.92, 102.80, 18.10, 0.000, 0.000, 0.000, 15:30:26.604, 1587846626604
39, 98.38, -277.69, 81.83, 13.09, 0.000, 0.000, 0.000, 15:30:26.632, 1587846626632
40, 121.31, -271.01, 103.51, 19.43, 0.000, 0.000, 0.000, 15:30:26.632, 1587846626632
41, 149.63, -248.50, 107.09, 20.03, 0.000, 0.000, 0.000, 15:30:26.633, 1587846626633
42, 125.35, -288.15, 89.71, 7.98, 0.000, 0.000, 0.000, 15:30:26.633, 1587846626633
43, 119.71, -276.54, 87.61, 13.84, 0.000, 0.000, 0.000, 15:30:26.634, 1587846626634
44, 123.86, -258.53, 111.71, 19.51, 0.000, 0.000, 0.000, 15:30:26.634, 1587846626634
45, 121.65, -267.76, 109.27, 14.56, 0.000, 0.000, 0.000, 15:30:26.637, 1587846626637
46, 105.44, -280.54, 92.37, 13.06, 0.000, 0.000, 0.000, 15:30:26.637, 1587846626637
47, 120.37, -274.71, 107.79, 21.52, 0.000, 0.000, 0.000, 15:30:26.646, 1587846626646
48, 138.48, -261.32, 112.89, 16.01, 0.000, 0.000, 0.000, 15:30:26.646, 1587846626646
49, 111.58, -283.45, 91.07, 9.07, 0.000, 0.000, 0.000, 15:30:26.660, 1587846626660
50, 121.20, -284.72, 95.19, 18.17, 0.000, 0.000, 0.000, 15:30:26.660, 1587846626660
51, 134.34, -263.88, 117.13, 19.91, 0.000, 0.000, 0.000, 15:30:26.677, 1587846626677
52, 128.72, -274.24, 94.69, 13.23, 0.000, 0.000, 0.000, 15:30:26.677, 1587846626677
53, 101.07, -284.22, 88.79, 15.57, 0.000, 0.000, 0.000, 15:30:26.679, 1587846626679
54, 126.63, -268.06, 115.58, 24.48, 0.000, 0.000, 0.000, 15:30:26.679, 1587846626679
55, 129.58, -264.12, 115.07, 9.97, 0.000, 0.000, 0.000, 15:30:26.691, 1587846626691
56, 104.20, -292.53, 96.73, 12.77, 0.000, 0.000, 0.000, 15:30:26.691, 1587846626691
57, 133.22, -266.37, 107.04, 26.78, 0.000, 0.000, 0.000, 15:30:26.705, 1587846626705
58, 142.83, -270.19, 105.63, 20.81, 0.000, 0.000, 0.000, 15:30:26.705, 1587846626705
59, 127.59, -280.81, 91.53, 8.95, 0.000, 0.000, 0.000, 15:30:26.706, 1587846626706
60, 121.51, -273.57, 92.84, 13.35, 0.000, 0.000, 0.000, 15:30:26.706, 1587846626706
61, 133.40, -262.54, 112.36, 20.89, 0.000, 0.000, 0.000, 15:30:26.720, 1587846626720
62, 120.66, -265.90, 105.48, 12.78, 0.000, 0.000, 0.000, 15:30:26.720, 1587846626720
63, 116.80, -277.55, 92.92, 18.72, 0.000, 0.000, 0.000, 15:30:26.735, 1587846626735
64, 130.20, -275.13, 102.62, 24.03, 0.000, 0.000, 0.000, 15:30:26.735, 1587846626735
65, 126.65, -258.03, 111.47, 8.63, 0.000, 0.000, 0.000, 15:30:26.737, 1587846626737
66, 120.61, -272.97, 94.89, 11.45, 0.000, 0.000, 0.000, 15:30:26.737, 1587846626737
67, 126.53, -273.44, 87.79, 22.75, 0.000, 0.000, 0.000, 15:30:26.766, 1587846626766
68, 142.52, -265.26, 102.43, 16.25, 0.000, 0.000, 0.000, 15:30:26.766, 1587846626766
69, 127.07, -272.81, 99.41, 11.38, 0.000, 0.000, 0.000, 15:30:26.767, 1587846626767
70, 119.06, -272.49, 102.42, 17.64, 0.000, 0.000, 0.000, 15:30:26.767, 1587846626767
71, 134.75, -271.70, 120.36, 14.18, 0.000, 0.000, 0.000, 15:30:26.767, 1587846626767
72, 132.38, -268.98, 103.99, 11.96, 0.000, 0.000, 0.000, 15:30:26.767, 1587846626767
73, 120.34, -280.20, 86.48, 13.94, 0.000, 0.000, 0.000, 15:30:26.779, 1587846626779
74, 124.41, -264.75, 110.76, 18.36, 0.000, 0.000, 0.000, 15:30:26.779, 1587846626779
75, 135.39, -263.23, 112.25, 14.35, 0.000, 0.000, 0.000, 15:30:26.796, 1587846626796
76, 121.02, -277.55, 93.72, 10.66, 0.000, 0.000, 0.000, 15:30:26.796, 1587846626796
77, 125.38, -260.73, 106.16, 18.92, 0.000, 0.000, 0.000, 15:30:26.796, 1587846626796
78, 136.69, -263.31, 105.69, 12.78, 0.000, 0.000, 0.000, 15:30:26.796, 1587846626796
79, 125.08, -276.66, 90.55, 6.54, 0.000, 0.000, 0.000, 15:30:26.810, 1587846626810
80, 118.61, -268.01, 97.05, 22.04, 0.000, 0.000, 0.000, 15:30:26.810, 1587846626810
81, 128.62, -253.63, 120.81, 21.62, 0.000, 0.000, 0.000, 15:30:26.825, 1587846626825
82, 120.54, -267.77, 102.41, 11.52, 0.000, 0.000, 0.000, 15:30:26.825, 1587846626825
83, 112.17, -279.98, 100.41, 13.99, 0.000, 0.000, 0.000, 15:30:26.826, 1587846626826
84, 132.45, -259.41, 116.77, 23.42, 0.000, 0.000, 0.000, 15:30:26.826, 1587846626826
85, 150.80, -250.59, 108.55, 8.11, 0.000, 0.000, 0.000, 15:30:26.839, 1587846626839
86, 131.24, -273.14, 99.64, 10.49, 0.000, 0.000, 0.000, 15:30:26.839, 1587846626839
87, 130.17, -266.50, 103.61, 22.64, 0.000, 0.000, 0.000, 15:30:26.855, 1587846626855
88, 142.11, -259.63, 117.55, 13.32, 0.000, 0.000, 0.000, 15:30:26.855, 1587846626855
89, 122.87, -280.01, 102.83, 8.12, 0.000, 0.000, 0.000, 15:30:26.856, 1587846626856
90, 121.50, -274.08, 102.36, 18.58, 0.000, 0.000, 0.000, 15:30:26.856, 1587846626856
91, 143.51, -255.55, 115.74, 21.29, 0.000, 0.000, 0.000, 15:30:26.870, 1587846626870
92, 122.05, -265.15, 107.64, 10.52, 0.000, 0.000, 0.000, 15:30:26.870, 1587846626870
93, 102.22, -277.06, 98.45, 16.23, 0.000, 0.000, 0.000, 15:30:26.886, 1587846626886
94, 129.17, -268.83, 111.37, 26.44, 0.000, 0.000, 0.000, 15:30:26.886, 1587846626886
95, 142.85, -254.37, 104.96, 12.69, 0.000, 0.000, 0.000, 15:30:26.888, 1587846626888
96, 133.13, -270.74, 97.23, 10.38, 0.000, 0.000, 0.000, 15:30:26.888, 1587846626888
97, 138.92, -257.60, 118.49, 21.05, 0.000, 0.000, 0.000, 15:30:26.906, 1587846626906
98, 140.22, -246.06, 122.34, 15.55, 0.000, 0.000, 0.000, 15:30:26.906, 1587846626906
99, 120.23, -272.66, 90.82, 9.91, 0.000, 0.000, 0.000, 15:30:26.915, 1587846626915
100, 136.31, -274.91, 94.80, 15.25, 0.000, 0.000, 0.000, 15:30:26.915, 1587846626915
101, 139.75, -266.96, 114.59, 21.14, 0.000, 0.000, 0.000, 15:30:26.916, 1587846626916
102, 129.65, -266.71, 101.82, 7.67, 0.000, 0.000, 0.000, 15:30:26.916, 1587846626916
103, 125.90, -270.84, 93.02, 16.22, 0.000, 0.000, 0.000, 15:30:26.930, 1587846626930
104, 133.41, -259.76, 111.46, 17.43, 0.000, 0.000, 0.000, 15:30:26.930, 1587846626930
105, 131.91, -263.24, 111.65, 12.55, 0.000, 0.000, 0.000, 15:30:26.946, 1587846626946
106, 123.26, -278.58, 101.78, 10.01, 0.000, 0.000, 0.000, 15:30:26.946, 1587846626946
107, 136.90, -258.18, 106.48, 24.09, 0.000, 0.000, 0.000, 15:30:26.947, 1587846626947
108, 135.09, -255.92, 115.64, 16.03, 0.000, 0.000, 0.000, 15:30:26.947, 1587846626947
109, 130.85, -275.19, 92.50, 5.77, 0.000, 0.000, 0.000, 15:30:26.960, 1587846626960
110, 135.46, -274.68, 105.71, 22.96, 0.000, 0.000, 0.000, 15:30:26.960, 1587846626960
111, 133.51, -250.71, 114.00, 17.97, 0.000, 0.000, 0.000, 15:30:26.991, 1587846626991
112, 142.53, -250.80, 110.16, 8.36, 0.000, 0.000, 0.000, 15:30:26.991, 1587846626991
113, 128.29, -271.78, 90.97, 17.64, 0.000, 0.000, 0.000, 15:30:26.993, 1587846626993
114, 150.30, -254.06, 106.96, 21.79, 0.000, 0.000, 0.000, 15:30:26.993, 1587846626993
115, 143.52, -262.22, 102.68, 13.05, 0.000, 0.000, 0.000, 15:30:26.993, 1587846626993
116, 132.12, -270.68, 91.56, 13.09, 0.000, 0.000, 0.000, 15:30:26.993, 1587846626993
117, 135.06, -259.27, 109.64, 23.59, 0.000, 0.000, 0.000, 15:30:26.995, 1587846626995
118, 142.25, -264.40, 112.89, 18.61, 0.000, 0.000, 0.000, 15:30:26.995, 1587846626995
119, 126.84, -273.38, 101.15, 9.29, 0.000, 0.000, 0.000, 15:30:27.005, 1587846627005
120, 109.01, -268.75, 95.73, 16.18, 0.000, 0.000, 0.000, 15:30:27.005, 1587846627005
121, 131.63, -256.03, 117.73, 21.52, 0.000, 0.000, 0.000, 15:30:27.020, 1587846627020
122, 136.09, -264.09, 104.07, 10.30, 0.000, 0.000, 0.000, 15:30:27.020, 1587846627020
123, 129.90, -261.46, 106.03, 10.66, 0.000, 0.000, 0.000, 15:30:27.036, 1587846627036
124, 131.44, -258.24, 110.10, 25.23, 0.000, 0.000, 0.000, 15:30:27.036, 1587846627036
125, 140.27, -262.10, 106.50, 12.75, 0.000, 0.000, 0.000, 15:30:27.037, 1587846627037
126, 118.88, -278.70, 92.77, 12.50, 0.000, 0.000, 0.000, 15:30:27.037, 1587846627037
127, 122.15, -249.72, 109.38, 20.15, 0.000, 0.000, 0.000, 15:30:27.050, 1587846627050
128, 148.77, -259.91, 111.68, 18.76, 0.000, 0.000, 0.000, 15:30:27.050, 1587846627050
129, 131.73, -264.45, 104.54, 11.48, 0.000, 0.000, 0.000, 15:30:27.065, 1587846627065
130, 127.93, -262.07, 105.52, 21.81, 0.000, 0.000, 0.000, 15:30:27.065, 1587846627065
131, 146.27, -250.57, 121.24, 24.20, 0.000, 0.000, 0.000, 15:30:27.067, 1587846627067
132, 134.77, -252.34, 107.62, 12.18, 0.000, 0.000, 0.000, 15:30:27.067, 1587846627067
133, 132.86, -270.60, 98.77, 18.38, 0.000, 0.000, 0.000, 15:30:27.096, 1587846627096
134, 136.78, -262.52, 103.59, 22.64, 0.000, 0.000, 0.000, 15:30:27.096, 1587846627096
135, 136.94, -271.57, 103.94, 18.46, 0.000, 0.000, 0.000, 15:30:27.097, 1587846627097
136, 129.67, -265.93, 93.97, 11.22, 0.000, 0.000, 0.000, 15:30:27.097, 1587846627097
137, 130.91, -253.54, 106.58, 21.16, 0.000, 0.000, 0.000, 15:30:27.098, 1587846627098
138, 137.67, -259.35, 109.61, 16.87, 0.000, 0.000, 0.000, 15:30:27.098, 1587846627098
139, 119.38, -273.91, 95.70, 8.67, 0.000, 0.000, 0.000, 15:30:27.110, 1587846627110
140, 127.66, -269.83, 107.32, 20.56, 0.000, 0.000, 0.000, 15:30:27.110, 1587846627110
141, 151.18, -254.72, 117.24, 18.79, 0.000, 0.000, 0.000, 15:30:27.125, 1587846627125
142, 134.16, -266.08, 104.95, 12.66, 0.000, 0.000, 0.000, 15:30:27.125, 1587846627125
143, 132.23, -263.72, 95.51, 15.70, 0.000, 0.000, 0.000, 15:30:27.126, 1587846627126
144, 137.98, -249.91, 116.86, 25.47, 0.000, 0.000, 0.000, 15:30:27.126, 1587846627126
145, 133.48, -256.36, 102.84, 13.33, 0.000, 0.000, 0.000, 15:30:27.140, 1587846627140
146, 123.78, -265.69, 96.96, 13.44, 0.000, 0.000, 0.000, 15:30:27.140, 1587846627140
147, 132.89, -257.83, 100.28, 21.44, 0.000, 0.000, 0.000, 15:30:27.155, 1587846627155
148, 144.71, -256.72, 112.47, 17.77, 0.000, 0.000, 0.000, 15:30:27.155, 1587846627155
149, 140.05, -273.65, 97.80, 10.85, 0.000, 0.000, 0.000, 15:30:27.156, 1587846627156
150, 127.71, -264.06, 105.95, 20.29, 0.000, 0.000, 0.000, 15:30:27.156, 1587846627156
151, 149.29, -252.33, 119.02, 21.21, 0.000, 0.000, 0.000, 15:30:27.170, 1587846627170
152, 131.78, -258.41, 100.94, 11.82, 0.000, 0.000, 0.000, 15:30:27.170, 1587846627170
153, 137.23, -265.74, 93.38, 18.85, 0.000, 0.000, 0.000, 15:30:27.185, 1587846627185
154, 149.45, -244.19, 106.30, 22.19, 0.000, 0.000, 0.000, 15:30:27.185, 1587846627185
155, 147.43, -254.26, 110.17, 11.03, 0.000, 0.000, 0.000, 15:30:27.186, 1587846627186
156, 128.49, -270.12, 90.70, 11.94, 0.000, 0.000, 0.000, 15:30:27.186, 1587846627186
157, 140.05, -253.49, 102.01, 19.73, 0.000, 0.000, 0.000, 15:30:27.200, 1587846627200
158, 144.27, -252.02, 111.99, 17.71, 0.000, 0.000, 0.000, 15:30:27.200, 1587846627200
159, 128.91, -281.00, 87.79, 8.58, 0.000, 0.000, 0.000, 15:30:27.216, 1587846627216
160, 147.50, -250.66, 96.55, 15.66, 0.000, 0.000, 0.000, 15:30:27.216, 1587846627216
161, 152.57, -255.04, 101.11, 19.64, 0.000, 0.000, 0.000, 15:30:27.217, 1587846627217
162, 132.02, -253.60, 109.44, 8.72, 0.000, 0.000, 0.000, 15:30:27.217, 1587846627217
163, 134.71, -264.81, 99.14, 11.39, 0.000, 0.000, 0.000, 15:30:27.230, 1587846627230
164, 152.38, -254.90, 113.46, 19.09, 0.000, 0.000, 0.000, 15:30:27.230, 1587846627230
165, 144.70, -260.68, 102.02, 11.02, 0.000, 0.000, 0.000, 15:30:27.249, 1587846627249
166, 120.80, -266.11, 95.28, 15.99, 0.000, 0.000, 0.000, 15:30:27.249, 1587846627249
167, 146.31, -253.47, 108.25, 22.69, 0.000, 0.000, 0.000, 15:30:27.255, 1587846627255
168, 147.49, -259.53, 108.81, 16.60, 0.000, 0.000, 0.000, 15:30:27.255, 1587846627255
169, 140.29, -273.23, 93.45, 5.37, 0.000, 0.000, 0.000, 15:30:27.260, 1587846627260
170, 129.89, -256.57, 105.01, 18.86, 0.000, 0.000, 0.000, 15:30:27.260, 1587846627260
171, 151.43, -249.59, 105.13, 22.40, 0.000, 0.000, 0.000, 15:30:27.282, 1587846627282
172, 134.22, -252.84, 98.09, 13.32, 0.000, 0.000, 0.000, 15:30:27.282, 1587846627282
173, 131.29, -265.21, 95.28, 16.59, 0.000, 0.000, 0.000, 15:30:27.285, 1587846627285
174, 145.87, -255.98, 117.88, 24.44, 0.000, 0.000, 0.000, 15:30:27.285, 1587846627285
175, 141.88, -246.04, 118.05, 14.57, 0.000, 0.000, 0.000, 15:30:27.290, 1587846627290
176, 117.06, -263.02, 103.29, 11.57, 0.000, 0.000, 0.000, 15:30:27.290, 1587846627290
177, 146.34, -256.23, 112.02, 24.04, 0.000, 0.000, 0.000, 15:30:27.322, 1587846627322
178, 152.66, -244.28, 109.44, 18.42, 0.000, 0.000, 0.000, 15:30:27.322, 1587846627322
179, 147.78, -252.93, 103.54, 8.47, 0.000, 0.000, 0.000, 15:30:27.326, 1587846627326
180, 135.25, -268.91, 94.83, 19.29, 0.000, 0.000, 0.000, 15:30:27.326, 1587846627326
181, 144.72, -250.46, 113.92, 22.26, 0.000, 0.000, 0.000, 15:30:27.327, 1587846627327
182, 141.42, -252.62, 106.14, 6.42, 0.000, 0.000, 0.000, 15:30:27.327, 1587846627327
183, 139.28, -262.54, 87.22, 16.27, 0.000, 0.000, 0.000, 15:30:27.328, 1587846627328
184, 150.42, -251.22, 104.21, 25.25, 0.000, 0.000, 0.000, 15:30:27.328, 1587846627328
185, 147.50, -252.93, 110.99, 18.23, 0.000, 0.000, 0.000, 15:30:27.335, 1587846627335
186, 125.13, -263.85, 96.03, 13.12, 0.000, 0.000, 0.000, 15:30:27.335, 1587846627335
187, 146.02, -253.84, 98.68, 20.25, 0.000, 0.000, 0.000, 15:30:27.351, 1587846627351
188, 163.08, -232.35, 116.39, 19.02, 0.000, 0.000, 0.000, 15:30:27.351, 1587846627351
189, 140.22, -260.10, 93.19, 15.59, 0.000, 0.000, 0.000, 15:30:27.366, 1587846627366
190, 134.23, -264.37, 96.16, 20.26, 0.000, 0.000, 0.000, 15:30:27.366, 1587846627366
191, 144.21, -249.34, 112.53, 23.48, 0.000, 0.000, 0.000, 15:30:27.367, 1587846627367
192, 150.06, -255.05, 94.65, 10.92, 0.000, 0.000, 0.000, 15:30:27.367, 1587846627367
193, 137.65, -262.37, 88.34, 13.68, 0.000, 0.000, 0.000, 15:30:27.381, 1587846627381
194, 151.41, -253.23, 115.00, 21.92, 0.000, 0.000, 0.000, 15:30:27.381, 1587846627381
195, 150.64, -256.15, 112.66, 11.82, 0.000, 0.000, 0.000, 15:30:27.395, 1587846627395
196, 138.70, -263.51, 104.82, 11.84, 0.000, 0.000, 0.000, 15:30:27.395, 1587846627395
197, 160.40, -251.73, 112.15, 23.22, 0.000, 0.000, 0.000, 15:30:27.397, 1587846627397
198, 141.97, -257.31, 109.38, 17.46, 0.000, 0.000, 0.000, 15:30:27.397, 1587846627397
199, 133.70, -263.26, 107.33, 11.21, 0.000, 0.000, 0.000, 15:30:27.411, 1587846627411
200, 121.88, -253.74, 95.08, 16.10, 0.000, 0.000, 0.000, 15:30:27.411, 1587846627411
0, 156.79, -238.67, 117.71, 19.44, 0.000, 0.000, 0.000, 15:30:27.412, 1587846627412
1, 136.02, -257.51, 99.60, 9.93, 0.000, 0.000, 0.000, 15:30:27.425, 1587846627425
2, 119.49, -256.32, 96.17, 14.05, 0.000, 0.000, 0.000, 15:30:27.425, 1587846627425
3, 144.00, -245.70, 112.42, 17.73, 0.000, 0.000, 0.000, 15:30:27.440, 1587846627440
4, 138.95, -264.12, 105.14, 12.75, 0.000, 0.000, 0.000, 15:30:27.440, 1587846627440
5, 127.64, -265.08, 92.56, 9.19, 0.000, 0.000, 0.000, 15:30:27.442, 1587846627442
6, 143.38, -249.18, 105.64, 18.75, 0.000, 0.000, 0.000, 15:30:27.442, 1587846627442
7, 148.15, -245.86, 109.30, 13.87, 0.000, 0.000, 0.000, 15:30:27.454, 1587846627454
8, 129.05, -258.85, 97.23, 8.25, 0.000, 0.000, 0.000, 15:30:27.454, 1587846627454
9, 124.59, -261.64, 95.31, 13.86, 0.000, 0.000, 0.000, 15:30:27.470, 1587846627470
10, 151.20, -251.99, 112.36, 19.30, 0.000, 0.000, 0.000, 15:30:27.470, 1587846627470
11, 121.37, -263.38, 101.02, 12.13, 0.000, 0.000, 0.000, 15:30:27.471, 1587846627471
12, 131.92, -271.67, 100.38, 15.25, 0.000, 0.000, 0.000, 15:30:27.471, 1587846627471
13, 147.69, -252.08, 116.24, 21.22, 0.000, 0.000, 0.000, 15:30:27.484, 1587846627484
14, 146.30, -249.67, 113.46, 12.16, 0.000, 0.000, 0.000, 15:30:27.484, 1587846627484
15, 126.48, -271.98, 91.12, 10.38, 0.000, 0.000, 0.000, 15:30:27.500, 1587846627500
16, 131.04, -261.89, 106.50, 21.45, 0.000, 0.000, 0.000, 15:30:27.500, 1587846627500
17, 143.12, -248.72, 116.19, 17.41, 0.000, 0.000, 0.000, 15:30:27.501, 1587846627501
18, 116.56, -269.10, 94.33, 9.39, 0.000, 0.000, 0.000, 15:30:27.501, 1587846627501
19, 134.15, -266.65, 99.27, 25.09, 0.000, 0.000, 0.000, 15:30:27.514, 1587846627514
20, 154.20, -241.17, 115.75, 20.19, 0.000, 0.000, 0.000, 15:30:27.514, 1587846627514
21, 145.37, -253.75, 107.32, 11.26, 0.000, 0.000, 0.000, 15:30:27.546, 1587846627546
22, 129.42, -266.22, 96.93, 13.27, 0.000, 0.000, 0.000, 15:30:27.546, 1587846627546
23, 144.30, -252.66, 100.58, 25.25, 0.000, 0.000, 0.000, 15:30:27.547, 1587846627547
24, 147.34, -248.35, 113.08, 15.92, 0.000, 0.000, 0.000, 15:30:27.547, 1587846627547
25, 130.32, -276.17, 95.28, 10.72, 0.000, 0.000, 0.000, 15:30:27.548, 1587846627548
26, 141.74, -255.02, 102.99, 17.14, 0.000, 0.000, 0.000, 15:30:27.548, 1587846627548
27, 147.74, -245.45, 119.07, 20.71, 0.000, 0.000, 0.000, 15:30:27.548, 1587846627548
28, 136.94, -258.34, 97.12, 9.04, 0.000, 0.000, 0.000, 15:30:27.548, 1587846627548
29, 138.60, -260.31, 103.70, 20.99, 0.000, 0.000, 0.000, 15:30:27.560, 1587846627560
30, 138.90, -250.90, 107.41, 22.35, 0.000, 0.000, 0.000, 15:30:27.560, 1587846627560
31, 129.67, -260.87, 92.50, 11.87, 0.000, 0.000, 0.000, 15:30:27.575, 1587846627575
32, 131.87, -266.97, 109.21, 17.62, 0.000, 0.000, 0.000, 15:30:27.575, 1587846627575
33, 140.40, -261.06, 107.56, 23.79, 0.000, 0.000, 0.000, 15:30:27.591, 1587846627591
34, 138.84, -261.21, 113.33, 10.13, 0.000, 0.000, 0.000, 15:30:27.591, 1587846627591
35, 134.17, -264.59, 94.31, 13.90, 0.000, 0.000, 0.000, 15:30:27.594, 1587846627594
36, 147.45, -248.27, 109.72, 18.93, 0.000, 0.000, 0.000, 15:30:27.594, 1587846627594
37, 152.50, -251.83, 114.54, 17.96, 0.000, 0.000, 0.000, 15:30:27.605, 1587846627605
38, 133.91, -265.83, 98.27, 12.44, 0.000, 0.000, 0.000, 15:30:27.605, 1587846627605
39, 129.93, -268.45, 93.85, 21.04, 0.000, 0.000, 0.000, 15:30:27.620, 1587846627620
40, 149.73, -245.26, 120.15, 23.42, 0.000, 0.000, 0.000, 15:30:27.620, 1587846627620
41, 135.52, -254.04, 105.62, 10.17, 0.000, 0.000, 0.000, 15:30:27.621, 1587846627621
42, 137.07, -265.07, 98.81, 12.09, 0.000, 0.000, 0.000, 15:30:27.621, 1587846627621
43, 146.03, -255.05, 111.35, 21.32, 0.000, 0.000, 0.000, 15:30:27.651, 1587846627651
44, 148.70, -258.53, 113.44, 14.31, 0.000, 0.000, 0.000, 15:30:27.651, 1587846627651
45, 134.70, -270.68, 101.50, 10.51, 0.000, 0.000, 0.000, 15:30:27.651, 1587846627651
46, 132.21, -252.83, 101.22, 21.37, 0.000, 0.000, 0.000, 15:30:27.651, 1587846627651
47, 151.30, -240.17, 113.91, 18.89, 0.000, 0.000, 0.000, 15:30:27.652, 1587846627652
48, 127.85, -263.61, 101.79, 5.66, 0.000, 0.000, 0.000, 15:30:27.652, 1587846627652
49, 140.73, -253.29, 112.40, 21.30, 0.000, 0.000, 0.000, 15:30:27.665, 1587846627665
50, 135.28, -254.87, 111.14, 18.73, 0.000, 0.000, 0.000, 15:30:27.665, 1587846627665
51, 142.72, -263.15, 106.08, 6.93, 0.000, 0.000, 0.000, 15:30:27.680, 1587846627680
52, 112.12, -277.47, 102.39, 16.01, 0.000, 0.000, 0.000, 15:30:27.680, 1587846627680
53, 125.72, -253.23, 116.19, 21.14, 0.000, 0.000, 0.000, 15:30:27.683, 1587846627683
54, 153.55, -251.47, 118.56, 11.60, 0.000, 0.000, 0.000, 15:30:27.683, 1587846627683
55, 137.79, -270.76, 104.39, 11.31, 0.000, 0.000, 0.000, 15:30:27.694, 1587846627694
56, 144.26, -258.60, 108.94, 25.85, 0.000, 0.000, 0.000, 15:30:27.694, 1587846627694
57, 145.24, -245.17, 112.86, 15.35, 0.000, 0.000, 0.000, 15:30:27.711, 1587846627711
58, 128.90, -267.73, 99.95, 8.31, 0.000, 0.000, 0.000, 15:30:27.711, 1587846627711
59, 133.45, -264.43, 104.97, 17.61, 0.000, 0.000, 0.000, 15:30:27.712, 1587846627712
60, 155.14, -250.41, 121.68, 19.27, 0.000, 0.000, 0.000, 15:30:27.712, 1587846627712
61, 138.61, -254.60, 101.80, 8.51, 0.000, 0.000, 0.000, 15:30:27.725, 1587846627725
62, 135.05, -258.25, 98.56, 16.22, 0.000, 0.000, 0.000, 15:30:27.725, 1587846627725
63, 140.38, -253.60, 113.01, 22.72, 0.000, 0.000, 0.000, 15:30:27.740, 1587846627740
64, 141.18, -249.13, 119.51, 8.94, 0.000, 0.000, 0.000, 15:30:27.740, 1587846627740
65, 129.04, -263.12, 101.19, 12.36, 0.000, 0.000, 0.000, 15:30:27.741, 1587846627741
66, 136.35, -256.67, 108.76, 18.89, 0.000, 0.000, 0.000, 15:30:27.741, 1587846627741
67, 138.07, -251.35, 115.57, 15.30, 0.000, 0.000, 0.000, 15:30:27.770, 1587846627770
68, 134.46, -257.46, 109.67, 8.65, 0.000, 0.000, 0.000, 15:30:27.770, 1587846627770
69, 134.65, -262.10, 105.81, 18.49, 0.000, 0.000, 0.000, 15:30:27.772, 1587846627772
70, 147.86, -257.63, 115.98, 18.93, 0.000, 0.000, 0.000, 15:30:27.772, 1587846627772
71, 142.10, -265.61, 102.28, 11.48, 0.000, 0.000, 0.000, 15:30:27.774, 1587846627774
72, 129.67, -263.38, 98.51, 12.95, 0.000, 0.000, 0.000, 15:30:27.774, 1587846627774
73, 132.19, -251.01, 107.92, 20.28, 0.000, 0.000, 0.000, 15:30:27.784, 1587846627784
74, 130.90, -244.56, 116.09, 12.43, 0.000, 0.000, 0.000, 15:30:27.784, 1587846627784
75, 131.09, -258.46, 109.58, 13.55, 0.000, 0.000, 0.000, 15:30:27.801, 1587846627801
76, 144.52, -260.59, 105.76, 25.54, 0.000, 0.000, 0.000, 15:30:27.801, 1587846627801
77, 150.81, -243.32, 117.45, 21.82, 0.000, 0.000, 0.000, 15:30:27.804, 1587846627804
78, 132.52, -269.22, 94.32, 16.38, 0.000, 0.000, 0.000, 15:30:27.804, 1587846627804
79, 138.54, -260.22, 93.56, 18.12, 0.000, 0.000, 0.000, 15:30:27.815, 1587846627815
80, 152.40, -243.00, 118.46, 20.44, 0.000, 0.000, 0.000, 15:30:27.815, 1587846627815
81, 143.08, -261.02, 99.78, 8.17, 0.000, 0.000, 0.000, 15:30:27.831, 1587846627831
82, 136.67, -264.28, 103.10, 17.75, 0.000, 0.000, 0.000, 15:30:27.831, 1587846627831
83, 143.35, -249.39, 109.84, 19.75, 0.000, 0.000, 0.000, 15:30:27.836, 1587846627836
84, 142.44, -248.08, 119.96, 15.21, 0.000, 0.000, 0.000, 15:30:27.836, 1587846627836
85, 119.95, -268.91, 97.45, 12.07, 0.000, 0.000, 0.000, 15:30:27.845, 1587846627845
86, 143.40, -247.09, 116.14, 20.50, 0.000, 0.000, 0.000, 15:30:27.845, 1587846627845
87, 147.70, -244.78, 110.30, 15.25, 0.000, 0.000, 0.000, 15:30:27.877, 1587846627877
88, 140.98, -259.97, 97.38, 12.29, 0.000, 0.000, 0.000, 15:30:27.877, 1587846627877
89, 146.59, -255.56, 110.40, 19.30, 0.000, 0.000, 0.000, 15:30:27.878, 1587846627878
90, 148.80, -248.98, 112.20, 20.80, 0.000, 0.000, 0.000, 15:30:27.878, 1587846627878
91, 128.65, -260.08, 100.91, 9.42, 0.000, 0.000, 0.000, 15:30:27.878, 1587846627878
92, 109.89, -267.16, 101.99, 13.44, 0.000, 0.000, 0.000, 15:30:27.878, 1587846627878
93, 149.16, -251.42, 116.99, 23.93, 0.000, 0.000, 0.000, 15:30:27.879, 1587846627879
94, 148.85, -252.94, 120.02, 15.04, 0.000, 0.000, 0.000, 15:30:27.879, 1587846627879
95, 126.25, -264.21, 104.37, 12.60, 0.000, 0.000, 0.000, 15:30:27.892, 1587846627892
96, 140.11, -258.74, 107.37, 21.78, 0.000, 0.000, 0.000, 15:30:27.892, 1587846627892
97, 134.42, -263.03, 102.34, 16.19, 0.000, 0.000, 0.000, 15:30:27.904, 1587846627904
98, 137.31, -258.40, 104.09, 10.74, 0.000, 0.000, 0.000, 15:30:27.904, 1587846627904
99, 143.16, -263.43, 101.74, 13.76, 0.000, 0.000, 0.000, 15:30:27.921, 1587846627921
100, 151.34, -250.62, 117.14, 20.20, 0.000, 0.000, 0.000, 15:30:27.921, 1587846627921
101, 129.85, -252.41, 109.30, 10.34, 0.000, 0.000, 0.000, 15:30:27.923, 1587846627923
102, 136.58, -261.67, 100.03, 13.92, 0.000, 0.000, 0.000, 15:30:27.923, 1587846627923
103, 151.21, -262.54, 106.41, 19.93, 0.000, 0.000, 0.000, 15:30:27.935, 1587846627935
104, 150.38, -241.98, 120.40, 17.92, 0.000, 0.000, 0.000, 15:30:27.935, 1587846627935
105, 121.87, -267.61, 98.79, 7.65, 0.000, 0.000, 0.000, 15:30:27.951, 1587846627951
106, 132.47, -252.57, 113.12, 20.82, 0.000, 0.000, 0.000, 15:30:27.951, 1587846627951
107, 146.56, -245.03, 119.94, 19.68, 0.000, 0.000, 0.000, 15:30:27.953, 1587846627953
108, 137.41, -250.60, 115.75, 13.88, 0.000, 0.000, 0.000, 15:30:27.953, 1587846627953
109, 138.46, -258.00, 105.40, 17.24, 0.000, 0.000, 0.000, 15:30:27.968, 1587846627968
110, 162.18, -246.84, 115.20, 23.49, 0.000, 0.000, 0.000, 15:30:27.968, 1587846627968
111, 142.26, -258.67, 112.15, 13.13, 0.000, 0.000, 0.000, 15:30:27.980, 1587846627980
112, 129.35, -262.17, 101.90, 11.94, 0.000, 0.000, 0.000, 15:30:27.980, 1587846627980
113, 152.64, -246.59, 119.89, 23.98, 0.000, 0.000, 0.000, 15:30:27.981, 1587846627981
114, 149.69, -250.18, 116.87, 17.11, 0.000, 0.000, 0.000, 15:30:27.981, 1587846627981
115, 121.07, -260.20, 104.77, 12.43, 0.000, 0.000, 0.000, 15:30:27.995, 1587846627995
116, 136.13, -247.36, 113.97, 28.26, 0.000, 0.000, 0.000, 15:30:27.995, 1587846627995
117, 158.76, -243.14, 117.74, 16.88, 0.000, 0.000, 0.000, 15:30:28.010, 1587846628010
118, 123.53, -267.83, 96.37, 9.62, 0.000, 0.000, 0.000, 15:30:28.010, 1587846628010
119, 121.48, -260.23, 94.78, 20.39, 0.000, 0.000, 0.000, 15:30:28.011, 1587846628011
120, 159.03, -240.79, 117.64, 23.66, 0.000, 0.000, 0.000, 15:30:28.011, 1587846628011
121, 148.34, -258.00, 101.53, 9.64, 0.000, 0.000, 0.000, 15:30:28.026, 1587846628026
122, 133.39, -269.13, 93.12, 14.21, 0.000, 0.000, 0.000, 15:30:28.026, 1587846628026
123, 159.44, -241.34, 110.40, 17.44, 0.000, 0.000, 0.000, 15:30:28.040, 1587846628040
124, 151.92, -249.48, 108.06, 15.14, 0.000, 0.000, 0.000, 15:30:28.040, 1587846628040
125, 132.82, -258.51, 96.21, 13.01, 0.000, 0.000, 0.000, 15:30:28.043, 1587846628043
126, 138.34, -251.78, 103.53, 21.92, 0.000, 0.000, 0.000, 15:30:28.043, 1587846628043
127, 145.71, -239.01, 119.65, 21.09, 0.000, 0.000, 0.000, 15:30:28.055, 1587846628055
128, 144.08, -252.49, 101.60, 13.05, 0.000, 0.000, 0.000, 15:30:28.055, 1587846628055
129, 141.65, -259.80, 96.03, 18.26, 0.000, 0.000, 0.000, 15:30:28.070, 1587846628070
130, 161.00, -241.91, 107.61, 19.87, 0.000, 0.000, 0.000, 15:30:28.070, 1587846628070
131, 152.96, -246.61, 101.57, 13.85, 0.000, 0.000, 0.000, 15:30:28.071, 1587846628071
132, 132.13, -255.08, 98.94, 13.95, 0.000, 0.000, 0.000, 15:30:28.071, 1587846628071
133, 140.65, -248.21, 109.65, 21.54, 0.000, 0.000, 0.000, 15:30:28.101, 1587846628101
134, 145.96, -249.28, 109.10, 13.39, 0.000, 0.000, 0.000, 15:30:28.101, 1587846628101
135, 132.93, -258.37, 99.29, 12.50, 0.000, 0.000, 0.000, 15:30:28.102, 1587846628102
136, 146.94, -255.36, 100.90, 24.28, 0.000, 0.000, 0.000, 15:30:28.102, 1587846628102
137, 152.59, -254.63, 110.20, 17.64, 0.000, 0.000, 0.000, 15:30:28.103, 1587846628103
138, 132.85, -263.86, 95.93, 11.63, 0.000, 0.000, 0.000, 15:30:28.103, 1587846628103
139, 137.85, -255.09, 103.65, 17.86, 0.000, 0.000, 0.000, 15:30:28.115, 1587846628115
140, 148.83, -240.24, 116.97, 18.34, 0.000, 0.000, 0.000, 15:30:28.115, 1587846628115
141, 145.16, -251.50, 106.56, 12.60, 0.000, 0.000, 0.000, 15:30:28.130, 1587846628130
142, 120.25, -252.35, 98.09, 15.87, 0.000, 0.000, 0.000, 15:30:28.130, 1587846628130
143, 146.52, -243.66, 109.98, 24.78, 0.000, 0.000, 0.000, 15:30:28.131, 1587846628131
144, 150.91, -256.42, 100.74, 17.95, 0.000, 0.000, 0.000, 15:30:28.131, 1587846628131
145, 144.77, -262.74, 85.65, 13.02, 0.000, 0.000, 0.000, 15:30:28.145, 1587846628145
146, 151.19, -261.13, 102.07, 21.72, 0.000, 0.000, 0.000, 15:30:28.145, 1587846628145
147, 158.62, -243.22, 109.42, 20.20, 0.000, 0.000, 0.000, 15:30:28.161, 1587846628161
148, 143.80, -254.11, 97.98, 9.19, 0.000, 0.000, 0.000, 15:30:28.161, 1587846628161
149, 154.99, -253.13, 99.49, 17.34, 0.000, 0.000, 0.000, 15:30:28.162, 1587846628162
150, 141.80, -254.25, 107.70, 22.66, 0.000, 0.000, 0.000, 15:30:28.162, 1587846628162
151, 142.52, -254.82, 103.26, 6.63, 0.000, 0.000, 0.000, 15:30:28.174, 1587846628174
152, 142.21, -258.13, 92.54, 17.43, 0.000, 0.000, 0.000, 15:30:28.174, 1587846628174
153, 146.94, -244.33, 115.87, 26.18, 0.000, 0.000, 0.000, 15:30:28.190, 1587846628190
154, 149.42, -248.13, 113.10, 16.60, 0.000, 0.000, 0.000, 15:30:28.190, 1587846628190
155, 137.02, -259.94, 100.79, 16.66, 0.000, 0.000, 0.000, 15:30:28.205, 1587846628205
156, 145.73, -252.51, 104.33, 19.80, 0.000, 0.000, 0.000, 15:30:28.205, 1587846628205
157, 148.35, -245.36, 115.38, 18.73, 0.000, 0.000, 0.000, 15:30:28.206, 1587846628206
158, 133.06, -262.75, 100.75, 9.65, 0.000, 0.000, 0.000, 15:30:28.206, 1587846628206
159, 125.77, -269.76, 96.81, 16.22, 0.000, 0.000, 0.000, 15:30:28.221, 1587846628221
160, 154.30, -240.55, 123.52, 18.84, 0.000, 0.000, 0.000, 15:30:28.221, 1587846628221
161, 144.75, -252.34, 116.71, 9.52, 0.000, 0.000, 0.000, 15:30:28.221, 1587846628221
162, 128.69, -265.08, 108.50, 14.35, 0.000, 0.000, 0.000, 15:30:28.221, 1587846628221
163, 139.48, -257.00, 119.57, 18.33, 0.000, 0.000, 0.000, 15:30:28.236, 1587846628236
164, 135.03, -248.31, 123.17, 16.73, 0.000, 0.000, 0.000, 15:30:28.236, 1587846628236
165, 129.69, -261.41, 109.27, 10.76, 0.000, 0.000, 0.000, 15:30:28.251, 1587846628251
166, 141.90, -253.38, 113.71, 20.42, 0.000, 0.000, 0.000, 15:30:28.251, 1587846628251
167, 149.55, -253.08, 120.52, 16.21, 0.000, 0.000, 0.000, 15:30:28.252, 1587846628252
168, 125.61, -266.42, 101.78, 11.66, 0.000, 0.000, 0.000, 15:30:28.252, 1587846628252
169, 129.00, -261.66, 107.01, 12.65, 0.000, 0.000, 0.000, 15:30:28.266, 1587846628266
170, 143.22, -240.94, 120.83, 16.27, 0.000, 0.000, 0.000, 15:30:28.266, 1587846628266
171, 128.28, -255.44, 109.81, 8.78, 0.000, 0.000, 0.000, 15:30:28.280, 1587846628280
172, 126.28, -266.27, 103.56, 16.21, 0.000, 0.000, 0.000, 15:30:28.280, 1587846628280
173, 138.79, -258.60, 125.58, 22.85, 0.000, 0.000, 0.000, 15:30:28.281, 1587846628281
174, 129.67, -253.05, 118.61, 14.31, 0.000, 0.000, 0.000, 15:30:28.281, 1587846628281
175, 131.96, -268.49, 100.41, 10.95, 0.000, 0.000, 0.000, 15:30:28.296, 1587846628296
176, 138.41, -257.32, 108.33, 21.49, 0.000, 0.000, 0.000, 15:30:28.296, 1587846628296
177, 135.51, -255.81, 114.91, 20.23, 0.000, 0.000, 0.000, 15:30:28.327, 1587846628327
178, 125.89, -263.34, 97.77, 12.94, 0.000, 0.000, 0.000, 15:30:28.327, 1587846628327
179, 131.92, -263.22, 107.95, 18.78, 0.000, 0.000, 0.000, 15:30:28.327, 1587846628327
180, 149.84, -249.24, 123.50, 19.51, 0.000, 0.000, 0.000, 15:30:28.327, 1587846628327
181, 132.24, -264.92, 109.68, 9.93, 0.000, 0.000, 0.000, 15:30:28.330, 1587846628330
182, 121.24, -266.71, 101.81, 12.81, 0.000, 0.000, 0.000, 15:30:28.330, 1587846628330
183, 143.13, -249.22, 122.14, 18.39, 0.000, 0.000, 0.000, 15:30:28.330, 1587846628330
184, 142.08, -247.61, 119.93, 13.94, 0.000, 0.000, 0.000, 15:30:28.330, 1587846628330
185, 131.31, -258.71, 101.14, 10.42, 0.000, 0.000, 0.000, 15:30:28.340, 1587846628340
186, 138.50, -256.60, 102.59, 20.32, 0.000, 0.000, 0.000, 15:30:28.340, 1587846628340
187, 149.39, -250.49, 123.31, 18.33, 0.000, 0.000, 0.000, 15:30:28.355, 1587846628355
188, 136.71, -255.88, 114.94, 13.88, 0.000, 0.000, 0.000, 15:30:28.355, 1587846628355
189, 139.39, -259.88, 99.54, 16.41, 0.000, 0.000, 0.000, 15:30:28.370, 1587846628370
190, 143.76, -250.62, 118.52, 17.63, 0.000, 0.000, 0.000, 15:30:28.370, 1587846628370
191, 135.45, -254.11, 105.35, 6.67, 0.000, 0.000, 0.000, 15:30:28.372, 1587846628372
192, 136.09, -258.61, 108.99, 20.15, 0.000, 0.000, 0.000, 15:30:28.372, 1587846628372
193, 138.07, -247.43, 115.13, 23.34, 0.000, 0.000, 0.000, 15:30:28.385, 1587846628385
194, 139.89, -244.81, 114.84, 11.92, 0.000, 0.000, 0.000, 15:30:28.385, 1587846628385
195, 137.44, -263.21, 95.59, 12.18, 0.000, 0.000, 0.000, 15:30:28.408, 1587846628408
196, 140.94, -262.80, 101.79, 19.30, 0.000, 0.000, 0.000, 15:30:28.408, 1587846628408
197, 154.91, -245.83, 119.87, 18.45, 0.000, 0.000, 0.000, 15:30:28.410, 1587846628410
198, 134.61, -275.92, 96.55, 11.23, 0.000, 0.000, 0.000, 15:30:28.410, 1587846628410
199, 136.69, -260.48, 102.69, 19.89, 0.000, 0.000, 0.000, 15:30:28.416, 1587846628416
200, 148.83, -248.75, 116.79, 20.66, 0.000, 0.000, 0.000, 15:30:28.416, 1587846628416
0, 142.76, -251.93, 110.07, 9.00, 0.000, 0.000, 0.000, 15:30:28.418, 1587846628418
1, 127.56, -258.61, 102.46, 12.02, 0.000, 0.000, 0.000, 15:30:28.430, 1587846628430
2, 146.72, -250.69, 117.29, 21.73, 0.000, 0.000, 0.000, 15:30:28.430, 1587846628430
3, 141.80, -258.15, 112.97, 12.21, 0.000, 0.000, 0.000, 15:30:28.445, 1587846628445
4, 136.81, -264.83, 97.96, 9.15, 0.000, 0.000, 0.000, 15:30:28.445, 1587846628445
5, 143.07, -251.58, 114.78, 23.80, 0.000, 0.000, 0.000, 15:30:28.451, 1587846628451
6, 150.57, -254.90, 113.73, 15.74, 0.000, 0.000, 0.000, 15:30:28.451, 1587846628451
7, 138.35, -259.20, 102.68, 8.43, 0.000, 0.000, 0.000, 15:30:28.460, 1587846628460
8, 142.71, -251.53, 103.52, 18.35, 0.000, 0.000, 0.000, 15:30:28.460, 1587846628460
9, 149.23, -245.69, 117.56, 23.12, 0.000, 0.000, 0.000, 15:30:28.475, 1587846628475
10, 130.46, -260.30, 110.62, 8.21, 0.000, 0.000, 0.000, 15:30:28.475, 1587846628475
11, 129.91, -266.62, 98.40, 15.48, 0.000, 0.000, 0.000, 15:30:28.476, 1587846628476
12, 145.00, -254.12, 102.85, 22.88, 0.000, 0.000, 0.000, 15:30:28.476, 1587846628476
13, 153.91, -245.83, 116.48, 13.78, 0.000, 0.000, 0.000, 15:30:28.490, 1587846628490
14, 140.21, -259.74, 101.57, 10.73, 0.000, 0.000, 0.000, 15:30:28.490, 1587846628490
15, 152.89, -251.33, 102.29, 20.08, 0.000, 0.000, 0.000, 15:30:28.507, 1587846628507
16, 164.23, -247.87, 108.81, 24.29, 0.000, 0.000, 0.000, 15:30:28.507, 1587846628507
17, 147.34, -261.06, 92.88, 10.48, 0.000, 0.000, 0.000, 15:30:28.508, 1587846628508
18, 144.13, -252.25, 92.35, 15.43, 0.000, 0.000, 0.000, 15:30:28.508, 1587846628508
19, 156.56, -247.27, 106.06, 20.91, 0.000, 0.000, 0.000, 15:30:28.520, 1587846628520
20, 146.68, -256.79, 97.67, 10.20, 0.000, 0.000, 0.000, 15:30:28.520, 1587846628520
21, 141.26, -264.26, 95.87, 19.76, 0.000, 0.000, 0.000, 15:30:28.537, 1587846628537
22, 149.48, -252.33, 106.76, 25.40, 0.000, 0.000, 0.000, 15:30:28.537, 1587846628537
23, 166.87, -239.76, 114.58, 16.91, 0.000, 0.000, 0.000, 15:30:28.538, 1587846628538
24, 152.08, -252.31, 92.77, 11.23, 0.000, 0.000, 0.000, 15:30:28.538, 1587846628538
25, 140.91, -267.09, 90.93, 20.41, 0.000, 0.000, 0.000, 15:30:28.550, 1587846628550
26, 167.69, -244.07, 114.50, 19.92, 0.000, 0.000, 0.000, 15:30:28.550, 1587846628550
27, 157.65, -249.45, 96.13, 10.33, 0.000, 0.000, 0.000, 15:30:28.566, 1587846628566
28, 143.75, -254.88, 92.01, 17.43, 0.000, 0.000, 0.000, 15:30:28.566, 1587846628566
29, 157.60, -237.49, 111.54, 22.26, 0.000, 0.000, 0.000, 15:30:28.567, 1587846628567
30, 138.58, -258.06, 100.80, 8.03, 0.000, 0.000, 0.000, 15:30:28.567, 1587846628567
31, 144.18, -257.21, 89.86, 13.56, 0.000, 0.000, 0.000, 15:30:28.580, 1587846628580
32, 152.67, -245.14, 103.14, 20.87, 0.000, 0.000, 0.000, 15:30:28.580, 1587846628580
33, 149.28, -249.75, 101.03, 12.32, 0.000, 0.000, 0.000, 15:30:28.596, 1587846628596
34, 137.25, -260.35, 94.71, 9.94, 0.000, 0.000, 0.000, 15:30:28.596, 1587846628596
35, 142.62, -258.87, 99.75, 22.48, 0.000, 0.000, 0.000, 15:30:28.597, 1587846628597
36, 151.61, -241.36, 115.55, 17.14, 0.000, 0.000, 0.000, 15:30:28.597, 1587846628597
37, 144.05, -257.22, 89.93, 7.54, 0.000, 0.000, 0.000, 15:30:28.609, 1587846628609
38, 142.81, -257.14, 91.14, 12.12, 0.000, 0.000, 0.000, 15:30:28.609, 1587846628609
39, 152.77, -255.32, 108.68, 17.84, 0.000, 0.000, 0.000, 15:30:28.625, 1587846628625
40, 141.00, -251.58, 91.55, 10.61, 0.000, 0.000, 0.000, 15:30:28.625, 1587846628625
41, 137.87, -264.82, 87.44, 19.16, 0.000, 0.000, 0.000, 15:30:28.625, 1587846628625
42, 142.97, -251.44, 107.89, 23.36, 0.000, 0.000, 0.000, 15:30:28.625, 1587846628625
43, 152.43, -249.40, 105.47, 14.87, 0.000, 0.000, 0.000, 15:30:28.656, 1587846628656
44, 138.65, -266.68, 87.37, 11.71, 0.000, 0.000, 0.000, 15:30:28.656, 1587846628656
45, 136.58, -266.75, 96.06, 20.93, 0.000, 0.000, 0.000, 15:30:28.657, 1587846628657
46, 146.80, -256.15, 104.64, 19.68, 0.000, 0.000, 0.000, 15:30:28.657, 1587846628657
47, 147.58, -263.79, 96.29, 10.13, 0.000, 0.000, 0.000, 15:30:28.658, 1587846628658
48, 133.00, -265.75, 98.34, 12.08, 0.000, 0.000, 0.000, 15:30:28.658, 1587846628658
49, 156.36, -247.85, 104.89, 19.68, 0.000, 0.000, 0.000, 15:30:28.671, 1587846628671
50, 139.90, -267.63, 96.46, 8.20, 0.000, 0.000, 0.000, 15:30:28.671, 1587846628671
51, 136.69, -260.04, 93.16, 11.51, 0.000, 0.000, 0.000, 15:30:28.686, 1587846628686
52, 154.79, -245.89, 107.30, 18.71, 0.000, 0.000, 0.000, 15:30:28.686, 1587846628686
53, 150.75, -254.75, 99.28, 9.74, 0.000, 0.000, 0.000, 15:30:28.686, 1587846628686
54, 133.70, -262.29, 96.34, 7.36, 0.000, 0.000, 0.000, 15:30:28.686, 1587846628686
55, 138.19, -262.64, 101.90, 18.79, 0.000, 0.000, 0.000, 15:30:28.704, 1587846628704
56, 159.09, -243.10, 121.35, 20.59, 0.000, 0.000, 0.000, 15:30:28.704, 1587846628704
57, 144.15, -269.40, 97.46, 13.06, 0.000, 0.000, 0.000, 15:30:28.717, 1587846628717
58, 135.03, -256.12, 89.04, 18.78, 0.000, 0.000, 0.000, 15:30:28.717, 1587846628717
59, 163.13, -241.13, 116.16, 21.72, 0.000, 0.000, 0.000, 15:30:28.719, 1587846628719
60, 143.22, -262.40, 91.10, 13.75, 0.000, 0.000, 0.000, 15:30:28.719, 1587846628719
61, 151.83, -248.16, 86.26, 13.06, 0.000, 0.000, 0.000, 15:30:28.730, 1587846628730
62, 162.42, -246.19, 100.41, 23.30, 0.000, 0.000, 0.000, 15:30:28.730, 1587846628730
63, 163.45, -243.52, 102.35, 12.77, 0.000, 0.000, 0.000, 15:30:28.746, 1587846628746
64, 140.42, -267.77, 78.07, 11.69, 0.000, 0.000, 0.000, 15:30:28.746, 1587846628746
65, 145.33, -261.79, 97.83, 21.93, 0.000, 0.000, 0.000, 15:30:28.747, 1587846628747
66, 148.22, -254.00, 106.86, 19.49, 0.000, 0.000, 0.000, 15:30:28.747, 1587846628747
67, 141.90, -266.21, 91.87, 10.26, 0.000, 0.000, 0.000, 15:30:28.760, 1587846628760
68, 142.99, -267.05, 78.42, 13.85, 0.000, 0.000, 0.000, 15:30:28.760, 1587846628760
69, 169.78, -254.29, 100.88, 19.87, 0.000, 0.000, 0.000, 15:30:28.776, 1587846628776
70, 149.52, -248.90, 103.20, 11.40, 0.000, 0.000, 0.000, 15:30:28.776, 1587846628776
71, 137.69, -263.28, 86.63, 17.77, 0.000, 0.000, 0.000, 15:30:28.777, 1587846628777
72, 150.98, -255.61, 101.80, 19.98, 0.000, 0.000, 0.000, 15:30:28.777, 1587846628777
73, 156.45, -253.65, 100.74, 16.00, 0.000, 0.000, 0.000, 15:30:28.790, 1587846628790
74, 149.20, -263.46, 88.85, 7.94, 0.000, 0.000, 0.000, 15:30:28.790, 1587846628790
75, 144.59, -262.22, 98.94, 24.74, 0.000, 0.000, 0.000, 15:30:28.807, 1587846628807
76, 152.39, -257.26, 105.29, 16.85, 0.000, 0.000, 0.000, 15:30:28.807, 1587846628807
77, 137.61, -253.41, 94.16, 11.27, 0.000, 0.000, 0.000, 15:30:28.808, 1587846628808
78, 133.20, -266.72, 91.46, 18.39, 0.000, 0.000, 0.000, 15:30:28.808, 1587846628808
79, 170.39, -247.25, 111.86, 16.77, 0.000, 0.000, 0.000, 15:30:28.820, 1587846628820
80, 146.86, -254.92, 99.97, 10.78, 0.000, 0.000, 0.000, 15:30:28.820, 1587846628820
81, 136.61, -258.33, 94.74, 14.48, 0.000, 0.000, 0.000, 15:30:28.852, 1587846628852
82, 154.41, -254.03, 99.41, 21.57, 0.000, 0.000, 0.000, 15:30:28.852, 1587846628852
83, 161.25, -250.31, 102.86, 13.44, 0.000, 0.000, 0.000, 15:30:28.852, 1587846628852
84, 137.07, -270.86, 89.16, 6.67, 0.000, 0.000, 0.000, 15:30:28.852, 1587846628852
85, 148.84, -266.23, 98.27, 20.02, 0.000, 0.000, 0.000, 15:30:28.854, 1587846628854
86, 163.26, -238.63, 115.02, 22.58, 0.000, 0.000, 0.000, 15:30:28.854, 1587846628854
87, 141.25, -256.69, 102.05, 13.11, 0.000, 0.000, 0.000, 15:30:28.855, 1587846628855
88, 151.86, -256.76, 95.38, 17.49, 0.000, 0.000, 0.000, 15:30:28.855, 1587846628855
89, 162.89, -244.66, 112.92, 18.39, 0.000, 0.000, 0.000, 15:30:28.865, 1587846628865
90, 148.18, -257.95, 99.53, 13.14, 0.000, 0.000, 0.000, 15:30:28.865, 1587846628865
91, 132.83, -268.43, 88.09, 9.85, 0.000, 0.000, 0.000, 15:30:28.879, 1587846628879
92, 143.25, -251.97, 103.01, 22.51, 0.000, 0.000, 0.000, 15:30:28.879, 1587846628879
93, 160.60, -251.16, 109.02, 15.44, 0.000, 0.000, 0.000, 15:30:28.895, 1587846628895
94, 142.40, -264.18, 90.88, 11.20, 0.000, 0.000, 0.000, 15:30:28.895, 1587846628895
95, 150.08, -260.08, 97.69, 18.21, 0.000, 0.000, 0.000, 15:30:28.897, 1587846628897
96, 153.39, -247.17, 109.11, 19.70, 0.000, 0.000, 0.000, 15:30:28.897, 1587846628897
97, 139.86, -256.41, 97.69, 10.01, 0.000, 0.000, 0.000, 15:30:28.909, 1587846628909
98, 136.56, -261.23, 92.90, 20.90, 0.000, 0.000, 0.000, 15:30:28.909, 1587846628909
99, 158.01, -249.32, 108.90, 25.07, 0.000, 0.000, 0.000, 15:30:28.926, 1587846628926
100, 140.72, -258.81, 96.12, 12.82, 0.000, 0.000, 0.000, 15:30:28.926, 1587846628926
101, 134.85, -262.45, 96.29, 14.64, 0.000, 0.000, 0.000, 15:30:28.927, 1587846628927
102, 142.95, -262.43, 105.69, 22.51, 0.000, 0.000, 0.000, 15:30:28.927, 1587846628927
103, 151.22, -245.40, 117.64, 13.50, 0.000, 0.000, 0.000, 15:30:28.940, 1587846628940
104, 136.79, -269.75, 93.10, 14.40, 0.000, 0.000, 0.000, 15:30:28.940, 1587846628940
105, 149.51, -260.64, 97.92, 19.69, 0.000, 0.000, 0.000, 15:30:28.956, 1587846628956
106, 162.27, -241.91, 111.49, 16.51, 0.000, 0.000, 0.000, 15:30:28.956, 1587846628956
107, 137.36, -263.92, 96.27, 9.63, 0.000, 0.000, 0.000, 15:30:28.957, 1587846628957
108, 135.96, -256.15, 94.06, 18.49, 0.000, 0.000, 0.000, 15:30:28.957, 1587846628957
109, 160.01, -249.26, 107.33, 22.59, 0.000, 0.000, 0.000, 15:30:28.970, 1587846628970
110, 142.79, -254.52, 105.93, 15.64, 0.000, 0.000, 0.000, 15:30:28.970, 1587846628970
111, 144.31, -265.26, 94.85, 13.09, 0.000, 0.000, 0.000, 15:30:28.986, 1587846628986
112, 153.35, -248.56, 117.30, 26.82, 0.000, 0.000, 0.000, 15:30:28.986, 1587846628986
113, 153.33, -258.83, 109.05, 20.21, 0.000, 0.000, 0.000, 15:30:28.987, 1587846628987
114, 143.25, -256.65, 92.46, 11.17, 0.000, 0.000, 0.000, 15:30:28.987, 1587846628987
115, 150.20, -248.33, 104.86, 23.56, 0.000, 0.000, 0.000, 15:30:29.000, 1587846629000
116, 160.45, -253.75, 106.84, 19.84, 0.000, 0.000, 0.000, 15:30:29.000, 1587846629000
117, 139.12, -266.07, 96.27, 13.71, 0.000, 0.000, 0.000, 15:30:29.015, 1587846629015
118, 143.51, -251.42, 104.74, 17.21, 0.000, 0.000, 0.000, 15:30:29.015, 1587846629015
119, 160.37, -240.17, 115.82, 22.89, 0.000, 0.000, 0.000, 15:30:29.015, 1587846629015
120, 144.65, -259.29, 104.14, 11.93, 0.000, 0.000, 0.000, 15:30:29.015, 1587846629015
121, 128.63, -276.42, 83.44, 14.39, 0.000, 0.000, 0.000, 15:30:29.029, 1587846629029
122, 148.69, -256.45, 107.27, 23.77, 0.000, 0.000, 0.000, 15:30:29.029, 1587846629029
123, 146.27, -262.40, 109.24, 15.02, 0.000, 0.000, 0.000, 15:30:29.045, 1587846629045
124, 151.31, -256.47, 97.89, 10.92, 0.000, 0.000, 0.000, 15:30:29.045, 1587846629045
125, 148.83, -255.78, 97.04, 19.03, 0.000, 0.000, 0.000, 15:30:29.046, 1587846629046
126, 150.95, -250.81, 105.89, 19.84, 0.000, 0.000, 0.000, 15:30:29.046, 1587846629046
127, 141.21, -264.08, 91.68, 11.32, 0.000, 0.000, 0.000, 15:30:29.059, 1587846629059
128, 148.63, -255.70, 90.50, 17.88, 0.000, 0.000, 0.000, 15:30:29.059, 1587846629059
129, 159.38, -256.65, 100.91, 21.82, 0.000, 0.000, 0.000, 15:30:29.079, 1587846629079
130, 144.82, -263.53, 108.51, 10.02, 0.000, 0.000, 0.000, 15:30:29.079, 1587846629079
131, 130.47, -260.53, 100.08, 14.14, 0.000, 0.000, 0.000, 15:30:29.081, 1587846629081
132, 146.76, -255.62, 105.93, 24.06, 0.000, 0.000, 0.000, 15:30:29.081, 1587846629081
133, 158.19, -254.41, 112.37, 13.58, 0.000, 0.000, 0.000, 15:30:29.090, 1587846629090
134, 134.44, -273.73, 94.46, 7.06, 0.000, 0.000, 0.000, 15:30:29.090, 1587846629090
135, 145.45, -258.49, 101.49, 21.16, 0.000, 0.000, 0.000, 15:30:29.106, 1587846629106
136, 154.33, -253.16, 113.70, 19.00, 0.000, 0.000, 0.000, 15:30:29.106, 1587846629106
137, 129.23, -258.71, 101.98, 10.35, 0.000, 0.000, 0.000, 15:30:29.109, 1587846629109
138, 141.98, -264.79, 102.21, 16.59, 0.000, 0.000, 0.000, 15:30:29.109, 1587846629109
139, 158.30, -253.40, 110.42, 23.56, 0.000, 0.000, 0.000, 15:30:29.120, 1587846629120
140, 153.51, -259.48, 103.86, 10.72, 0.000, 0.000, 0.000, 15:30:29.120, 1587846629120
141, 142.60, -268.88, 90.83, 14.38, 0.000, 0.000, 0.000, 15:30:29.136, 1587846629136
142, 149.84, -253.42, 104.26, 23.65, 0.000, 0.000, 0.000, 15:30:29.136, 1587846629136
143, 153.00, -253.63, 114.37, 15.05, 0.000, 0.000, 0.000, 15:30:29.138, 1587846629138
144, 143.23, -259.40, 96.15, 13.36, 0.000, 0.000, 0.000, 15:30:29.138, 1587846629138
145, 128.42, -257.57, 102.59, 18.85, 0.000, 0.000, 0.000, 15:30:29.150, 1587846629150
146, 166.16, -250.82, 116.98, 23.02, 0.000, 0.000, 0.000, 15:30:29.150, 1587846629150
147, 148.31, -258.12, 98.17, 14.14, 0.000, 0.000, 0.000, 15:30:29.165, 1587846629165
148, 147.20, -255.12, 93.00, 14.83, 0.000, 0.000, 0.000, 15:30:29.165, 1587846629165
149, 145.75, -248.00, 103.31, 19.87, 0.000, 0.000, 0.000, 15:30:29.168, 1587846629168
150, 147.82, -253.76, 100.87, 12.81, 0.000, 0.000, 0.000, 15:30:29.168, 1587846629168
151, 126.68, -268.27, 87.26, 15.88, 0.000, 0.000, 0.000, 15:30:29.179, 1587846629179
152, 153.97, -242.91, 109.97, 23.06, 0.000, 0.000, 0.000, 15:30:29.179, 1587846629179
153, 153.76, -253.15, 104.24, 14.18, 0.000, 0.000, 0.000, 15:30:29.195, 1587846629195
154, 136.70, -265.90, 94.48, 16.67, 0.000, 0.000, 0.000, 15:30:29.195, 1587846629195
155, 142.35, -257.99, 99.49, 19.81, 0.000, 0.000, 0.000, 15:30:29.211, 1587846629211
156, 150.23, -245.81, 117.06, 19.86, 0.000, 0.000, 0.000, 15:30:29.211, 1587846629211
157, 144.67, -267.54, 94.39, 7.80, 0.000, 0.000, 0.000, 15:30:29.212, 1587846629212
158, 142.65, -265.27, 87.41, 17.46, 0.000, 0.000, 0.000, 15:30:29.212, 1587846629212
159, 149.62, -249.72, 106.06, 17.84, 0.000, 0.000, 0.000, 15:30:29.225, 1587846629225
160, 150.53, -250.75, 103.69, 14.02, 0.000, 0.000, 0.000, 15:30:29.225, 1587846629225
161, 137.36, -261.17, 90.88, 10.33, 0.000, 0.000, 0.000, 15:30:29.226, 1587846629226
162, 153.95, -244.94, 113.32, 20.58, 0.000, 0.000, 0.000, 15:30:29.226, 1587846629226
163, 152.76, -262.54, 107.60, 11.73, 0.000, 0.000, 0.000, 15:30:29.241, 1587846629241
164, 140.39, -263.67, 102.91, 12.73, 0.000, 0.000, 0.000, 15:30:29.241, 1587846629241
165, 144.59, -258.47, 104.67, 21.25, 0.000, 0.000, 0.000, 15:30:29.256, 1587846629256
166, 179.77, -245.64, 133.47, 18.19, 0.000, 0.000, 0.000, 15:30:29.256, 1587846629256
167, 155.86, -259.61, 109.33, 11.81, 0.000, 0.000, 0.000, 15:30:29.256, 1587846629256
168, 158.68, -252.43, 110.06, 19.44, 0.000, 0.000, 0.000, 15:30:29.256, 1587846629256
169, 195.99, -235.54, 141.55, 17.96, 0.000, 0.000, 0.000, 15:30:29.271, 1587846629271
170, 194.00, -213.34, 145.21, 10.06, 0.000, 0.000, 0.000, 15:30:29.271, 1587846629271
171, 180.16, -217.45, 126.62, 12.87, 0.000, 0.000, 0.000, 15:30:29.286, 1587846629286
172, 211.87, -185.24, 149.88, 23.81, 0.000, 0.000, 0.000, 15:30:29.286, 1587846629286
173, 221.23, -182.67, 149.09, 18.89, 0.000, 0.000, 0.000, 15:30:29.287, 1587846629287
174, 227.16, -178.53, 127.11, 13.42, 0.000, 0.000, 0.000, 15:30:29.287, 1587846629287
175, 226.43, -187.17, 117.53, 17.46, 0.000, 0.000, 0.000, 15:30:29.316, 1587846629316
176, 222.70, -150.78, 144.75, 21.65, 0.000, 0.000, 0.000, 15:30:29.316, 1587846629316
177, 216.18, -181.18, 116.63, 11.95, 0.000, 0.000, 0.000, 15:30:29.316, 1587846629316
178, 225.52, -171.35, 131.51, 11.74, 0.000, 0.000, 0.000, 15:30:29.316, 1587846629316
179, 214.00, -169.83, 131.61, 22.89, 0.000, 0.000, 0.000, 15:30:29.317, 1587846629317
180, 177.57, -175.70, 119.59, 10.39, 0.000, 0.000, 0.000, 15:30:29.317, 1587846629317
181, 192.73, -192.05, 94.81, 11.01, 0.000, 0.000, 0.000, 15:30:29.330, 1587846629330
182, 218.13, -167.33, 118.18, 26.90, 0.000, 0.000, 0.000, 15:30:29.330, 1587846629330
183, 198.85, -169.40, 128.01, 19.26, 0.000, 0.000, 0.000, 15:30:29.348, 1587846629348
184, 177.35, -202.53, 102.32, 10.13, 0.000, 0.000, 0.000, 15:30:29.348, 1587846629348
185, 163.70, -218.54, 94.97, 20.62, 0.000, 0.000, 0.000, 15:30:29.349, 1587846629349
186, 187.61, -191.87, 127.26, 17.99, 0.000, 0.000, 0.000, 15:30:29.349, 1587846629349
187, 161.14, -209.06, 102.75, 13.37, 0.000, 0.000, 0.000, 15:30:29.359, 1587846629359
188, 167.41, -215.24, 101.76, 18.98, 0.000, 0.000, 0.000, 15:30:29.359, 1587846629359
189, 160.29, -235.01, 92.46, 22.79, 0.000, 0.000, 0.000, 15:30:29.376, 1587846629376
190, 162.02, -219.00, 109.38, 9.48, 0.000, 0.000, 0.000, 15:30:29.376, 1587846629376
191, 156.71, -233.28, 94.54, 13.53, 0.000, 0.000, 0.000, 15:30:29.377, 1587846629377
192, 151.12, -238.19, 98.69, 19.80, 0.000, 0.000, 0.000, 15:30:29.377, 1587846629377
193, 153.61, -233.32, 106.06, 14.66, 0.000, 0.000, 0.000, 15:30:29.389, 1587846629389
194, 118.58, -248.25, 84.31, 13.48, 0.000, 0.000, 0.000, 15:30:29.389, 1587846629389
195, 126.36, -242.86, 109.44, 15.84, 0.000, 0.000, 0.000, 15:30:29.406, 1587846629406
196, 155.16, -232.98, 104.98, 16.98, 0.000, 0.000, 0.000, 15:30:29.406, 1587846629406
197, 125.04, -275.17, 85.50, 10.37, 0.000, 0.000, 0.000, 15:30:29.407, 1587846629407
198, 128.89, -263.61, 83.91, 17.62, 0.000, 0.000, 0.000, 15:30:29.407, 1587846629407
199, 154.65, -237.62, 115.76, 21.68, 0.000, 0.000, 0.000, 15:30:29.443, 1587846629443
200, 134.81, -258.53, 106.29, 14.22, 0.000, 0.000, 0.000, 15:30:29.443, 1587846629443
0, 114.48, -271.77, 87.15, 13.37, 0.000, 0.000, 0.000, 15:30:29.445, 1587846629445
1, 136.59, -263.37, 104.21, 21.21, 0.000, 0.000, 0.000, 15:30:29.445, 1587846629445
2, 132.72, -260.80, 108.20, 15.99, 0.000, 0.000, 0.000, 15:30:29.445, 1587846629445
3, 117.18, -285.91, 89.32, 11.82, 0.000, 0.000, 0.000, 15:30:29.448, 1587846629448
4, 124.18, -273.76, 98.89, 18.66, 0.000, 0.000, 0.000, 15:30:29.448, 1587846629448
5, 136.99, -262.57, 115.67, 17.31, 0.000, 0.000, 0.000, 15:30:29.450, 1587846629450
6, 123.01, -271.73, 97.56, 7.30, 0.000, 0.000, 0.000, 15:30:29.450, 1587846629450
7, 94.67, -276.14, 95.58, 17.73, 0.000, 0.000, 0.000, 15:30:29.465, 1587846629465
8, 130.75, -263.62, 110.47, 22.81, 0.000, 0.000, 0.000, 15:30:29.465, 1587846629465
9, 131.98, -275.72, 100.62, 9.80, 0.000, 0.000, 0.000, 15:30:29.482, 1587846629482
10, 119.51, -292.03, 90.74, 15.09, 0.000, 0.000, 0.000, 15:30:29.482, 1587846629482
11, 137.01, -262.24, 105.61, 21.43, 0.000, 0.000, 0.000, 15:30:29.486, 1587846629486
12, 127.06, -269.06, 108.55, 11.92, 0.000, 0.000, 0.000, 15:30:29.486, 1587846629486
13, 115.71, -289.67, 97.90, 12.41, 0.000, 0.000, 0.000, 15:30:29.494, 1587846629494
14, 132.77, -271.79, 110.24, 19.36, 0.000, 0.000, 0.000, 15:30:29.494, 1587846629494
15, 135.58, -264.34, 116.16, 19.02, 0.000, 0.000, 0.000, 15:30:29.512, 1587846629512
16, 124.35, -275.23, 103.73, 12.36, 0.000, 0.000, 0.000, 15:30:29.512, 1587846629512
17, 118.70, -279.22, 92.80, 16.78, 0.000, 0.000, 0.000, 15:30:29.513, 1587846629513
18, 133.67, -269.08, 113.96, 22.11, 0.000, 0.000, 0.000, 15:30:29.513, 1587846629513
19, 110.81, -275.66, 97.70, 12.15, 0.000, 0.000, 0.000, 15:30:29.541, 1587846629541
20, 120.11, -275.53, 87.83, 14.92, 0.000, 0.000, 0.000, 15:30:29.541, 1587846629541
21, 135.23, -268.52, 109.61, 22.20, 0.000, 0.000, 0.000, 15:30:29.544, 1587846629544
22, 141.44, -273.13, 115.96, 17.33, 0.000, 0.000, 0.000, 15:30:29.544, 1587846629544
23, 121.49, -281.81, 102.56, 14.40, 0.000, 0.000, 0.000, 15:30:29.545, 1587846629545
24, 132.94, -269.59, 101.54, 18.52, 0.000, 0.000, 0.000, 15:30:29.545, 1587846629545
25, 145.87, -262.33, 112.09, 16.29, 0.000, 0.000, 0.000, 15:30:29.555, 1587846629555
26, 131.52, -278.81, 89.05, 6.51, 0.000, 0.000, 0.000, 15:30:29.555, 1587846629555
27, 114.41, -283.01, 92.82, 18.51, 0.000, 0.000, 0.000, 15:30:29.571, 1587846629571
28, 136.42, -263.93, 110.83, 21.73, 0.000, 0.000, 0.000, 15:30:29.571, 1587846629571
29, 139.87, -264.18, 111.55, 10.50, 0.000, 0.000, 0.000, 15:30:29.571, 1587846629571
30, 120.47, -283.05, 87.10, 11.47, 0.000, 0.000, 0.000, 15:30:29.571, 1587846629571
31, 131.07, -272.65, 101.44, 21.04, 0.000, 0.000, 0.000, 15:30:29.585, 1587846629585
32, 136.12, -272.46, 114.87, 15.08, 0.000, 0.000, 0.000, 15:30:29.585, 1587846629585
33, 129.91, -266.82, 102.17, 11.27, 0.000, 0.000, 0.000, 15:30:29.601, 1587846629601
34, 126.19, -267.81, 103.04, 18.97, 0.000, 0.000, 0.000, 15:30:29.601, 1587846629601
35, 124.89, -262.90, 119.50, 23.28, 0.000, 0.000, 0.000, 15:30:29.602, 1587846629602
36, 128.40, -267.63, 104.14, 9.32, 0.000, 0.000, 0.000, 15:30:29.602, 1587846629602
37, 128.70, -276.03, 95.74, 20.43, 0.000, 0.000, 0.000, 15:30:29.615, 1587846629615
38, 139.57, -265.47, 108.36, 19.62, 0.000, 0.000, 0.000, 15:30:29.615, 1587846629615
39, 122.52, -279.52, 105.06, 14.06, 0.000, 0.000, 0.000, 15:30:29.631, 1587846629631
40, 117.67, -276.08, 110.52, 16.99, 0.000, 0.000, 0.000, 15:30:29.631, 1587846629631
41, 127.99, -265.85, 127.68, 21.99, 0.000, 0.000, 0.000, 15:30:29.632, 1587846629632
42, 131.04, -255.95, 125.93, 16.37, 0.000, 0.000, 0.000, 15:30:29.632, 1587846629632
43, 118.59, -276.51, 112.11, 9.63, 0.000, 0.000, 0.000, 15:30:29.645, 1587846629645
44, 115.90, -270.31, 119.01, 21.19, 0.000, 0.000, 0.000, 15:30:29.645, 1587846629645
45, 123.89, -263.46, 115.66, 19.78, 0.000, 0.000, 0.000, 15:30:29.661, 1587846629661
46, 121.93, -272.18, 94.22, 7.74, 0.000, 0.000, 0.000, 15:30:29.661, 1587846629661
47, 121.80, -267.59, 104.36, 13.55, 0.000, 0.000, 0.000, 15:30:29.662, 1587846629662
48, 144.98, -261.75, 126.58, 23.14, 0.000, 0.000, 0.000, 15:30:29.662, 1587846629662
49, 116.38, -269.84, 119.63, 17.82, 0.000, 0.000, 0.000, 15:30:29.674, 1587846629674
50, 114.32, -284.26, 110.08, 12.44, 0.000, 0.000, 0.000, 15:30:29.674, 1587846629674
51, 131.65, -269.05, 117.94, 24.99, 0.000, 0.000, 0.000, 15:30:29.693, 1587846629693
52, 132.91, -253.70, 117.57, 18.50, 0.000, 0.000, 0.000, 15:30:29.693, 1587846629693
53, 119.20, -273.89, 110.99, 10.61, 0.000, 0.000, 0.000, 15:30:29.693, 1587846629693
54, 121.83, -278.24, 106.68, 19.58, 0.000, 0.000, 0.000, 15:30:29.693, 1587846629693
55, 139.53, -261.57, 116.28, 20.79, 0.000, 0.000, 0.000, 15:30:29.704, 1587846629704
56, 129.09, -270.82, 109.04, 4.17, 0.000, 0.000, 0.000, 15:30:29.704, 1587846629704
57, 118.04, -279.35, 108.03, 16.09, 0.000, 0.000, 0.000, 15:30:29.720, 1587846629720
58, 135.46, -255.18, 128.37, 23.62, 0.000, 0.000, 0.000, 15:30:29.720, 1587846629720
59, 129.52, -264.32, 118.52, 11.96, 0.000, 0.000, 0.000, 15:30:29.721, 1587846629721
60, 113.36, -278.34, 104.75, 11.67, 0.000, 0.000, 0.000, 15:30:29.721, 1587846629721
61, 127.53, -277.75, 111.04, 23.27, 0.000, 0.000, 0.000, 15:30:29.735, 1587846629735
62, 140.65, -252.56, 124.88, 15.59, 0.000, 0.000, 0.000, 15:30:29.735, 1587846629735
63, 113.02, -280.38, 98.94, 9.72, 0.000, 0.000, 0.000, 15:30:29.766, 1587846629766
64, 126.93, -276.46, 111.48, 19.99, 0.000, 0.000, 0.000, 15:30:29.766, 1587846629766
65, 139.58, -262.11, 115.53, 15.50, 0.000, 0.000, 0.000, 15:30:29.768, 1587846629768
66, 120.78, -273.81, 107.77, 7.92, 0.000, 0.000, 0.000, 15:30:29.768, 1587846629768
67, 129.14, -266.67, 104.46, 15.14, 0.000, 0.000, 0.000, 15:30:29.768, 1587846629768
68, 138.02, -252.62, 111.99, 17.19, 0.000, 0.000, 0.000, 15:30:29.768, 1587846629768
69, 127.57, -266.65, 115.59, 9.70, 0.000, 0.000, 0.000, 15:30:29.770, 1587846629770
70, 126.66, -272.09, 105.02, 13.17, 0.000, 0.000, 0.000, 15:30:29.770, 1587846629770
71, 137.81, -258.26, 115.00, 19.80, 0.000, 0.000, 0.000, 15:30:29.780, 1587846629780
72, 132.88, -255.72, 116.92, 16.06, 0.000, 0.000, 0.000, 15:30:29.780, 1587846629780
73, 131.82, -265.78, 97.50, 7.55, 0.000, 0.000, 0.000, 15:30:29.794, 1587846629794
74, 134.36, -272.66, 113.45, 20.54, 0.000, 0.000, 0.000, 15:30:29.794, 1587846629794
75, 136.93, -261.80, 115.53, 17.57, 0.000, 0.000, 0.000, 15:30:29.810, 1587846629810
76, 130.14, -269.71, 104.63, 13.30, 0.000, 0.000, 0.000, 15:30:29.810, 1587846629810
77, 122.41, -266.81, 101.71, 14.83, 0.000, 0.000, 0.000, 15:30:29.812, 1587846629812
78, 134.09, -252.08, 119.61, 23.60, 0.000, 0.000, 0.000, 15:30:29.812, 1587846629812
79, 123.84, -263.28, 105.27, 14.18, 0.000, 0.000, 0.000, 15:30:29.826, 1587846629826
80, 126.31, -272.30, 105.52, 14.73, 0.000, 0.000, 0.000, 15:30:29.826, 1587846629826
81, 138.08, -259.07, 114.64, 18.65, 0.000, 0.000, 0.000, 15:30:29.846, 1587846629846
82, 135.80, -263.62, 110.46, 14.45, 0.000, 0.000, 0.000, 15:30:29.846, 1587846629846
83, 128.04, -275.99, 100.86, 12.12, 0.000, 0.000, 0.000, 15:30:29.849, 1587846629849
84, 131.74, -278.06, 109.34, 21.78, 0.000, 0.000, 0.000, 15:30:29.849, 1587846629849
85, 151.20, -266.18, 118.93, 19.14, 0.000, 0.000, 0.000, 15:30:29.872, 1587846629872
86, 116.28, -266.91, 98.05, 10.42, 0.000, 0.000, 0.000, 15:30:29.872, 1587846629872
87, 129.72, -261.74, 104.87, 15.72, 0.000, 0.000, 0.000, 15:30:29.873, 1587846629873
88, 127.34, -250.57, 110.95, 23.17, 0.000, 0.000, 0.000, 15:30:29.873, 1587846629873
89, 132.57, -260.08, 111.08, 14.28, 0.000, 0.000, 0.000, 15:30:29.874, 1587846629874
90, 118.99, -280.17, 96.41, 10.53, 0.000, 0.000, 0.000, 15:30:29.874, 1587846629874
91, 135.59, -259.73, 110.29, 17.84, 0.000, 0.000, 0.000, 15:30:29.886, 1587846629886
92, 131.83, -277.92, 113.99, 17.29, 0.000, 0.000, 0.000, 15:30:29.886, 1587846629886
93, 128.80, -282.76, 99.28, 8.29, 0.000, 0.000, 0.000, 15:30:29.901, 1587846629901
94, 152.29, -259.76, 103.19, 20.55, 0.000, 0.000, 0.000, 15:30:29.901, 1587846629901
95, 165.24, -234.52, 113.29, 19.30, 0.000, 0.000, 0.000, 15:30:29.902, 1587846629902
96, 151.06, -263.12, 87.26, 13.96, 0.000, 0.000, 0.000, 15:30:29.902, 1587846629902
97, 147.19, -259.53, 74.17, 15.77, 0.000, 0.000, 0.000, 15:30:29.916, 1587846629916
98, 163.42, -250.71, 85.86, 19.29, 0.000, 0.000, 0.000, 15:30:29.916, 1587846629916
99, 154.20, -247.64, 81.33, 15.24, 0.000, 0.000, 0.000, 15:30:29.931, 1587846629931
100, 142.30, -266.67, 75.05, 16.49, 0.000, 0.000, 0.000, 15:30:29.931, 1587846629931
101, 153.49, -240.34, 92.96, 22.27, 0.000, 0.000, 0.000, 15:30:29.932, 1587846629932
102, 167.28, -247.34, 94.62, 17.24, 0.000, 0.000, 0.000, 15:30:29.932, 1587846629932
103, 157.97, -264.85, 71.17, 7.26, 0.000, 0.000, 0.000, 15:30:29.944, 1587846629944
104, 166.29, -262.66, 78.71, 13.45, 0.000, 0.000, 0.000, 15:30:29.944, 1587846629944
105, 167.39, -255.18, 85.35, 20.70, 0.000, 0.000, 0.000, 15:30:29.960, 1587846629960
106, 152.28, -260.15, 82.41, 13.51, 0.000, 0.000, 0.000, 15:30:29.960, 1587846629960
107, 141.88, -267.62, 75.02, 19.03, 0.000, 0.000, 0.000, 15:30:29.961, 1587846629961
108, 166.17, -248.23, 97.21, 19.28, 0.000, 0.000, 0.000, 15:30:29.961, 1587846629961
109, 157.18, -256.89, 87.77, 15.10, 0.000, 0.000, 0.000, 15:30:29.991, 1587846629991
110, 157.67, -273.27, 87.45, 12.54, 0.000, 0.000, 0.000, 15:30:29.991, 1587846629991
111, 151.51, -266.01, 89.54, 21.43, 0.000, 0.000, 0.000, 15:30:29.992, 1587846629992
112, 159.48, -248.03, 98.95, 13.13, 0.000, 0.000, 0.000, 15:30:29.992, 1587846629992
113, 141.78, -270.73, 78.01, 14.58, 0.000, 0.000, 0.000, 15:30:29.993, 1587846629993
114, 157.59, -259.12, 91.84, 23.31, 0.000, 0.000, 0.000, 15:30:29.993, 1587846629993
115, 156.90, -251.15, 95.67, 21.24, 0.000, 0.000, 0.000, 15:30:30.005, 1587846630005
116, 148.41, -259.10, 85.50, 11.46, 0.000, 0.000, 0.000, 15:30:30.005, 1587846630005
117, 150.39, -260.94, 85.94, 16.23, 0.000, 0.000, 0.000, 15:30:30.021, 1587846630021
118, 151.47, -259.68, 94.95, 22.07, 0.000, 0.000, 0.000, 15:30:30.021, 1587846630021
119, 156.85, -261.63, 87.86, 11.75, 0.000, 0.000, 0.000, 15:30:30.021, 1587846630021
120, 138.68, -263.97, 81.19, 9.92, 0.000, 0.000, 0.000, 15:30:30.021, 1587846630021
121, 156.81, -256.82, 93.36, 18.76, 0.000, 0.000, 0.000, 15:30:30.035, 1587846630035
122, 162.16, -252.24, 90.69, 14.43, 0.000, 0.000, 0.000, 15:30:30.035, 1587846630035
123, 141.12, -271.48, 77.14, 10.13, 0.000, 0.000, 0.000, 15:30:30.051, 1587846630051
124, 151.67, -253.33, 89.62, 19.84, 0.000, 0.000, 0.000, 15:30:30.051, 1587846630051
125, 161.51, -247.58, 103.89, 17.21, 0.000, 0.000, 0.000, 15:30:30.052, 1587846630052
126, 145.87, -271.02, 84.62, 7.80, 0.000, 0.000, 0.000, 15:30:30.052, 1587846630052
127, 134.43, -271.72, 79.13, 17.05, 0.000, 0.000, 0.000, 15:30:30.065, 1587846630065
128, 152.64, -241.99, 100.61, 19.14, 0.000, 0.000, 0.000, 15:30:30.065, 1587846630065
129, 152.29, -266.36, 97.23, 12.78, 0.000, 0.000, 0.000, 15:30:30.082, 1587846630082
130, 142.43, -272.79, 90.17, 11.42, 0.000, 0.000, 0.000, 15:30:30.082, 1587846630082
131, 153.49, -247.53, 94.00, 20.89, 0.000, 0.000, 0.000, 15:30:30.084, 1587846630084
132, 158.36, -242.39, 106.94, 17.54, 0.000, 0.000, 0.000, 15:30:30.084, 1587846630084
133, 136.23, -262.18, 91.43, 16.37, 0.000, 0.000, 0.000, 15:30:30.095, 1587846630095
134, 141.81, -262.83, 92.17, 19.87, 0.000, 0.000, 0.000, 15:30:30.095, 1587846630095
135, 155.47, -253.28, 98.91, 18.20, 0.000, 0.000, 0.000, 15:30:30.112, 1587846630112
136, 150.49, -264.97, 92.47, 8.97, 0.000, 0.000, 0.000, 15:30:30.112, 1587846630112
137, 133.13, -271.83, 87.57, 20.73, 0.000, 0.000, 0.000, 15:30:30.113, 1587846630113
138, 162.61, -250.03, 104.29, 21.91, 0.000, 0.000, 0.000, 15:30:30.113, 1587846630113
139, 142.25, -267.93, 89.68, 10.80, 0.000, 0.000, 0.000, 15:30:30.124, 1587846630124
140, 130.51, -265.94, 86.81, 12.34, 0.000, 0.000, 0.000, 15:30:30.124, 1587846630124
141, 150.01, -257.84, 97.36, 22.07, 0.000, 0.000, 0.000, 15:30:30.141, 1587846630141
142, 149.32, -250.87, 102.49, 14.95, 0.000, 0.000, 0.000, 15:30:30.141, 1587846630141
143, 136.79, -260.33, 91.31, 10.19, 0.000, 0.000, 0.000, 15:30:30.142, 1587846630142
144, 143.62, -259.30, 94.83, 23.73, 0.000, 0.000, 0.000, 15:30:30.142, 1587846630142
145, 167.27, -252.26, 95.80, 19.07, 0.000, 0.000, 0.000, 15:30:30.155, 1587846630155
146, 143.54, -260.52, 93.42, 9.93, 0.000, 0.000, 0.000, 15:30:30.155, 1587846630155
147, 141.87, -268.26, 94.92, 17.65, 0.000, 0.000, 0.000, 15:30:30.170, 1587846630170
148, 160.83, -250.39, 101.70, 19.63, 0.000, 0.000, 0.000, 15:30:30.170, 1587846630170
149, 151.78, -252.76, 101.87, 12.11, 0.000, 0.000, 0.000, 15:30:30.171, 1587846630171
150, 126.43, -267.01, 87.12, 12.13, 0.000, 0.000, 0.000, 15:30:30.171, 1587846630171
151, 157.46, -245.69, 104.30, 20.58, 0.000, 0.000, 0.000, 15:30:30.188, 1587846630188
152, 154.75, -254.83, 101.99, 13.81, 0.000, 0.000, 0.000, 15:30:30.188, 1587846630188
153, 142.95, -263.44, 87.03, 8.39, 0.000, 0.000, 0.000, 15:30:30.201, 1587846630201
154, 140.70, -260.47, 92.72, 20.64, 0.000, 0.000, 0.000, 15:30:30.201, 1587846630201
155, 152.53, -253.72, 103.50, 24.72, 0.000, 0.000, 0.000, 15:30:30.203, 1587846630203
156, 143.94, -257.19, 97.66, 8.38, 0.000, 0.000, 0.000, 15:30:30.203, 1587846630203
157, 135.03, -269.07, 81.18, 16.93, 0.000, 0.000, 0.000, 15:30:30.215, 1587846630215
158, 153.07, -242.65, 112.89, 22.72, 0.000, 0.000, 0.000, 15:30:30.215, 1587846630215
159, 146.66, -250.76, 96.72, 8.73, 0.000, 0.000, 0.000, 15:30:30.231, 1587846630231
160, 137.30, -269.44, 85.16, 12.72, 0.000, 0.000, 0.000, 15:30:30.231, 1587846630231
161, 152.62, -252.40, 101.46, 22.79, 0.000, 0.000, 0.000, 15:30:30.232, 1587846630232
162, 145.42, -250.78, 105.37, 16.06, 0.000, 0.000, 0.000, 15:30:30.232, 1587846630232
163, 131.34, -264.65, 95.14, 11.28, 0.000, 0.000, 0.000, 15:30:30.245, 1587846630245
164, 146.33, -255.44, 99.41, 17.94, 0.000, 0.000, 0.000, 15:30:30.245, 1587846630245
165, 157.69, -255.28, 109.52, 20.93, 0.000, 0.000, 0.000, 15:30:30.260, 1587846630260
166, 143.08, -257.68, 99.39, 12.56, 0.000, 0.000, 0.000, 15:30:30.260, 1587846630260
167, 124.00, -258.00, 90.19, 18.42, 0.000, 0.000, 0.000, 15:30:30.262, 1587846630262
168, 158.32, -244.97, 106.21, 22.05, 0.000, 0.000, 0.000, 15:30:30.262, 1587846630262
169, 153.02, -256.18, 103.36, 9.51, 0.000, 0.000, 0.000, 15:30:30.275, 1587846630275
170, 141.17, -264.37, 87.29, 13.33, 0.000, 0.000, 0.000, 15:30:30.275, 1587846630275
171, 143.55, -262.00, 100.73, 21.64, 0.000, 0.000, 0.000, 15:30:30.290, 1587846630290
172, 149.59, -251.70, 116.55, 17.13, 0.000, 0.000, 0.000, 15:30:30.290, 1587846630290
173, 130.41, -256.48, 98.92, 12.55, 0.000, 0.000, 0.000, 15:30:30.291, 1587846630291
174, 130.89, -253.58, 108.39, 18.51, 0.000, 0.000, 0.000, 15:30:30.291, 1587846630291
175, 147.62, -249.37, 125.05, 20.85, 0.000, 0.000, 0.000, 15:30:30.321, 1587846630321
176, 122.44, -264.38, 123.70, 13.33, 0.000, 0.000, 0.000, 15:30:30.321, 1587846630321
177, 118.80, -256.92, 119.77, 16.45, 0.000, 0.000, 0.000, 15:30:30.322, 1587846630322
178, 123.87, -249.54, 123.69, 19.00, 0.000, 0.000, 0.000, 15:30:30.322, 1587846630322
179, 135.37, -251.57, 134.83, 12.34, 0.000, 0.000, 0.000, 15:30:30.323, 1587846630323
180, 103.48, -269.77, 110.42, 11.83, 0.000, 0.000, 0.000, 15:30:30.323, 1587846630323
181, 133.96, -250.99, 129.94, 21.43, 0.000, 0.000, 0.000, 15:30:30.335, 1587846630335
182, 130.52, -258.83, 126.85, 19.70, 0.000, 0.000, 0.000, 15:30:30.335, 1587846630335
183, 121.72, -261.10, 120.65, 12.80, 0.000, 0.000, 0.000, 15:30:30.350, 1587846630350
184, 113.44, -258.34, 122.34, 26.59, 0.000, 0.000, 0.000, 15:30:30.350, 1587846630350
185, 133.42, -245.02, 132.78, 21.34, 0.000, 0.000, 0.000, 15:30:30.351, 1587846630351
186, 124.21, -256.56, 117.97, 11.50, 0.000, 0.000, 0.000, 15:30:30.351, 1587846630351
187, 125.91, -266.25, 111.43, 12.19, 0.000, 0.000, 0.000, 15:30:30.366, 1587846630366
188, 135.03, -251.87, 127.24, 20.98, 0.000, 0.000, 0.000, 15:30:30.366, 1587846630366
189, 124.55, -252.61, 120.34, 12.63, 0.000, 0.000, 0.000, 15:30:30.381, 1587846630381
190, 114.98, -259.73, 110.18, 15.17, 0.000, 0.000, 0.000, 15:30:30.381, 1587846630381
191, 132.72, -249.79, 118.34, 19.57, 0.000, 0.000, 0.000, 15:30:30.382, 1587846630382
192, 142.52, -250.72, 123.37, 17.06, 0.000, 0.000, 0.000, 15:30:30.382, 1587846630382
193, 115.36, -274.33, 104.63, 16.13, 0.000, 0.000, 0.000, 15:30:30.395, 1587846630395
194, 116.06, -258.84, 113.82, 20.22, 0.000, 0.000, 0.000, 15:30:30.395, 1587846630395
195, 128.40, -243.80, 121.77, 22.02, 0.000, 0.000, 0.000, 15:30:30.411, 1587846630411
196, 123.43, -259.85, 108.79, 4.68, 0.000, 0.000, 0.000, 15:30:30.411, 1587846630411
197, 126.90, -261.26, 112.28, 18.96, 0.000, 0.000, 0.000, 15:30:30.412, 1587846630412
198, 143.43, -256.54, 126.06, 27.67, 0.000, 0.000, 0.000, 15:30:30.412, 1587846630412
199, 125.64, -268.28, 108.65, 13.81, 0.000, 0.000, 0.000, 15:30:30.425, 1587846630425
200, 115.14, -264.24, 108.34, 13.42, 0.000, 0.000, 0.000, 15:30:30.425, 1587846630425
0, 132.95, -242.56, 118.75, 20.72, 0.000, 0.000, 0.000, 15:30:30.426, 1587846630426
1, 145.15, -249.53, 123.74, 18.69, 0.000, 0.000, 0.000, 15:30:30.439, 1587846630439
2, 128.60, -258.92, 113.60, 7.87, 0.000, 0.000, 0.000, 15:30:30.439, 1587846630439
3, 126.24, -258.35, 112.58, 21.94, 0.000, 0.000, 0.000, 15:30:30.455, 1587846630455
4, 146.77, -246.00, 131.53, 19.00, 0.000, 0.000, 0.000, 15:30:30.455, 1587846630455
5, 130.98, -268.09, 106.90, 7.92, 0.000, 0.000, 0.000, 15:30:30.456, 1587846630456
6, 132.17, -264.99, 105.68, 15.87, 0.000, 0.000, 0.000, 15:30:30.456, 1587846630456
7, 129.63, -248.56, 120.20, 22.64, 0.000, 0.000, 0.000, 15:30:30.470, 1587846630470
8, 132.58, -257.32, 114.96, 12.98, 0.000, 0.000, 0.000, 15:30:30.470, 1587846630470
9, 130.48, -275.39, 98.65, 11.80, 0.000, 0.000, 0.000, 15:30:30.485, 1587846630485
10, 138.77, -258.83, 118.19, 22.72, 0.000, 0.000, 0.000, 15:30:30.485, 1587846630485
11, 139.40, -254.07, 120.39, 15.87, 0.000, 0.000, 0.000, 15:30:30.490, 1587846630490
12, 126.46, -258.76, 106.96, 13.43, 0.000, 0.000, 0.000, 15:30:30.490, 1587846630490
13, 141.15, -243.84, 120.57, 17.95, 0.000, 0.000, 0.000, 15:30:30.516, 1587846630516
14, 142.27, -250.89, 116.82, 17.04, 0.000, 0.000, 0.000, 15:30:30.516, 1587846630516
15, 134.56, -266.94, 110.07, 9.49, 0.000, 0.000, 0.000, 15:30:30.517, 1587846630517
16, 114.90, -264.96, 108.81, 14.13, 0.000, 0.000, 0.000, 15:30:30.517, 1587846630517
17, 150.64, -242.49, 123.78, 25.51, 0.000, 0.000, 0.000, 15:30:30.518, 1587846630518
18, 148.94, -249.35, 111.34, 11.46, 0.000, 0.000, 0.000, 15:30:30.518, 1587846630518
19, 119.69, -263.45, 105.02, 13.95, 0.000, 0.000, 0.000, 15:30:30.529, 1587846630529
20, 126.21, -263.30, 112.24, 21.17, 0.000, 0.000, 0.000, 15:30:30.529, 1587846630529
21, 142.54, -250.68, 120.19, 18.69, 0.000, 0.000, 0.000, 15:30:30.545, 1587846630545
22, 141.58, -252.03, 111.76, 14.56, 0.000, 0.000, 0.000, 15:30:30.545, 1587846630545
23, 132.04, -258.75, 110.14, 17.86, 0.000, 0.000, 0.000, 15:30:30.546, 1587846630546
24, 149.06, -247.10, 110.38, 20.41, 0.000, 0.000, 0.000, 15:30:30.546, 1587846630546
25, 140.56, -262.96, 106.67, 15.18, 0.000, 0.000, 0.000, 15:30:30.559, 1587846630559
26, 137.24, -258.65, 102.99, 23.25, 0.000, 0.000, 0.000, 15:30:30.559, 1587846630559
27, 148.09, -245.91, 116.44, 20.66, 0.000, 0.000, 0.000, 15:30:30.575, 1587846630575
28, 141.39, -252.52, 109.11, 10.55, 0.000, 0.000, 0.000, 15:30:30.575, 1587846630575
29, 127.89, -265.02, 97.89, 7.66, 0.000, 0.000, 0.000, 15:30:30.576, 1587846630576
30, 139.92, -249.12, 113.39, 24.97, 0.000, 0.000, 0.000, 15:30:30.576, 1587846630576
31, 142.10, -248.00, 117.03, 15.93, 0.000, 0.000, 0.000, 15:30:30.590, 1587846630590
32, 129.74, -274.99, 110.24, 12.43, 0.000, 0.000, 0.000, 15:30:30.590, 1587846630590
33, 130.75, -261.06, 111.45, 17.90, 0.000, 0.000, 0.000, 15:30:30.606, 1587846630606
34, 136.95, -244.50, 121.07, 20.12, 0.000, 0.000, 0.000, 15:30:30.606, 1587846630606
35, 132.06, -256.86, 116.11, 8.70, 0.000, 0.000, 0.000, 15:30:30.607, 1587846630607
36, 130.25, -259.80, 98.98, 15.11, 0.000, 0.000, 0.000, 15:30:30.607, 1587846630607
37, 149.55, -250.61, 115.96, 21.72, 0.000, 0.000, 0.000, 15:30:30.620, 1587846630620
38, 144.14, -242.63, 129.20, 16.04, 0.000, 0.000, 0.000, 15:30:30.620, 1587846630620
39, 121.01, -275.45, 105.92, 13.14, 0.000, 0.000, 0.000, 15:30:30.652, 1587846630652
40, 142.97, -254.42, 111.29, 23.03, 0.000, 0.000, 0.000, 15:30:30.652, 1587846630652
41, 148.04, -242.61, 116.82, 12.40, 0.000, 0.000, 0.000, 15:30:30.652, 1587846630652
42, 127.01, -255.14, 108.06, 11.20, 0.000, 0.000, 0.000, 15:30:30.652, 1587846630652
43, 132.90, -260.94, 102.75, 18.50, 0.000, 0.000, 0.000, 15:30:30.653, 1587846630653
44, 150.47, -248.32, 117.29, 18.69, 0.000, 0.000, 0.000, 15:30:30.653, 1587846630653
45, 137.21, -260.50, 106.57, 11.64, 0.000, 0.000, 0.000, 15:30:30.653, 1587846630653
46, 130.70, -264.53, 105.74, 17.61, 0.000, 0.000, 0.000, 15:30:30.653, 1587846630653
47, 140.79, -251.31, 115.38, 22.45, 0.000, 0.000, 0.000, 15:30:30.665, 1587846630665
48, 149.46, -247.91, 109.84, 13.09, 0.000, 0.000, 0.000, 15:30:30.665, 1587846630665
49, 127.24, -271.95, 99.30, 15.15, 0.000, 0.000, 0.000, 15:30:30.679, 1587846630679
50, 149.53, -253.82, 110.34, 24.84, 0.000, 0.000, 0.000, 15:30:30.679, 1587846630679
51, 153.95, -258.00, 114.04, 14.24, 0.000, 0.000, 0.000, 15:30:30.695, 1587846630695
52, 130.12, -273.76, 100.23, 7.32, 0.000, 0.000, 0.000, 15:30:30.695, 1587846630695
53, 127.04, -256.32, 110.85, 16.76, 0.000, 0.000, 0.000, 15:30:30.696, 1587846630696
54, 135.35, -257.80, 110.46, 21.27, 0.000, 0.000, 0.000, 15:30:30.696, 1587846630696
55, 131.95, -264.65, 105.84, 11.51, 0.000, 0.000, 0.000, 15:30:30.710, 1587846630710
56, 140.77, -261.83, 105.50, 18.73, 0.000, 0.000, 0.000, 15:30:30.710, 1587846630710
57, 152.59, -248.40, 115.08, 22.91, 0.000, 0.000, 0.000, 15:30:30.725, 1587846630725
58, 153.93, -259.84, 98.13, 14.53, 0.000, 0.000, 0.000, 15:30:30.725, 1587846630725
59, 135.20, -262.60, 102.92, 11.98, 0.000, 0.000, 0.000, 15:30:30.726, 1587846630726
60, 135.35, -261.85, 105.96, 22.26, 0.000, 0.000, 0.000, 15:30:30.726, 1587846630726
61, 146.98, -255.38, 114.62, 17.29, 0.000, 0.000, 0.000, 15:30:30.739, 1587846630739
62, 131.87, -259.72, 106.88, 9.33, 0.000, 0.000, 0.000, 15:30:30.739, 1587846630739
63, 138.36, -257.81, 109.48, 17.04, 0.000, 0.000, 0.000, 15:30:30.755, 1587846630755
64, 144.96, -254.82, 112.31, 17.88, 0.000, 0.000, 0.000, 15:30:30.755, 1587846630755
65, 132.74, -268.64, 101.07, 8.07, 0.000, 0.000, 0.000, 15:30:30.756, 1587846630756
66, 130.46, -263.41, 103.94, 13.90, 0.000, 0.000, 0.000, 15:30:30.756, 1587846630756
67, 144.36, -252.93, 105.83, 23.22, 0.000, 0.000, 0.000, 15:30:30.769, 1587846630769
68, 141.78, -250.72, 116.02, 14.87, 0.000, 0.000, 0.000, 15:30:30.769, 1587846630769
69, 133.55, -271.26, 97.71, 13.89, 0.000, 0.000, 0.000, 15:30:30.785, 1587846630785
70, 139.53, -260.73, 111.97, 21.20, 0.000, 0.000, 0.000, 15:30:30.785, 1587846630785
71, 149.77, -248.63, 115.29, 17.92, 0.000, 0.000, 0.000, 15:30:30.786, 1587846630786
72, 133.17, -268.77, 105.05, 7.81, 0.000, 0.000, 0.000, 15:30:30.786, 1587846630786
73, 136.85, -271.80, 105.44, 19.99, 0.000, 0.000, 0.000, 15:30:30.800, 1587846630800
74, 143.46, -250.12, 115.34, 17.69, 0.000, 0.000, 0.000, 15:30:30.800, 1587846630800
75, 139.33, -258.90, 109.72, 9.70, 0.000, 0.000, 0.000, 15:30:30.816, 1587846630816
76, 135.63, -265.76, 106.22, 18.86, 0.000, 0.000, 0.000, 15:30:30.816, 1587846630816
77, 146.85, -251.80, 118.29, 20.14, 0.000, 0.000, 0.000, 15:30:30.817, 1587846630817
78, 132.60, -262.72, 106.30, 9.31, 0.000, 0.000, 0.000, 15:30:30.817, 1587846630817
79, 120.15, -271.14, 92.64, 10.79, 0.000, 0.000, 0.000, 15:30:30.830, 1587846630830
80, 137.61, -263.32, 109.09, 21.12, 0.000, 0.000, 0.000, 15:30:30.830, 1587846630830
81, 157.91, -252.26, 118.96, 17.53, 0.000, 0.000, 0.000, 15:30:30.845, 1587846630845
82, 136.75, -267.99, 101.83, 13.84, 0.000, 0.000, 0.000, 15:30:30.845, 1587846630845
83, 142.51, -256.99, 103.77, 18.82, 0.000, 0.000, 0.000, 15:30:30.846, 1587846630846
84, 154.21, -246.13, 115.50, 17.10, 0.000, 0.000, 0.000, 15:30:30.846, 1587846630846
85, 126.32, -260.24, 99.57, 10.43, 0.000, 0.000, 0.000, 15:30:30.876, 1587846630876
86, 129.64, -257.61, 99.48, 20.55, 0.000, 0.000, 0.000, 15:30:30.876, 1587846630876
87, 144.39, -250.64, 104.28, 21.61, 0.000, 0.000, 0.000, 15:30:30.877, 1587846630877
88, 144.53, -257.04, 108.87, 8.36, 0.000, 0.000, 0.000, 15:30:30.877, 1587846630877
89, 132.44, -266.44, 99.22, 14.61, 0.000, 0.000, 0.000, 15:30:30.878, 1587846630878
90, 141.55, -259.22, 110.39, 23.58, 0.000, 0.000, 0.000, 15:30:30.878, 1587846630878
91, 144.20, -251.25, 111.37, 13.98, 0.000, 0.000, 0.000, 15:30:30.889, 1587846630889
92, 130.96, -265.99, 94.82, 8.84, 0.000, 0.000, 0.000, 15:30:30.889, 1587846630889
93, 136.12, -262.00, 99.52, 20.34, 0.000, 0.000, 0.000, 15:30:30.905, 1587846630905
94, 152.26, -245.17, 121.55, 20.09, 0.000, 0.000, 0.000, 15:30:30.905, 1587846630905
95, 146.06, -260.26, 102.65, 8.08, 0.000, 0.000, 0.000, 15:30:30.907, 1587846630907
96, 136.80, -262.93, 100.63, 14.03, 0.000, 0.000, 0.000, 15:30:30.907, 1587846630907
97, 145.44, -250.87, 113.94, 18.21, 0.000, 0.000, 0.000, 15:30:30.919, 1587846630919
98, 130.08, -258.69, 113.34, 12.22, 0.000, 0.000, 0.000, 15:30:30.919, 1587846630919
99, 123.24, -265.78, 98.18, 8.76, 0.000, 0.000, 0.000, 15:30:30.935, 1587846630935
100, 145.25, -255.34, 113.67, 18.94, 0.000, 0.000, 0.000, 15:30:30.935, 1587846630935
101, 137.54, -257.17, 116.14, 18.68, 0.000, 0.000, 0.000, 15:30:30.936, 1587846630936
102, 140.35, -258.68, 107.80, 9.73, 0.000, 0.000, 0.000, 15:30:30.936, 1587846630936
103, 135.30, -262.44, 103.98, 22.77, 0.000, 0.000, 0.000, 15:30:30.952, 1587846630952
104, 155.12, -250.18, 116.25, 21.86, 0.000, 0.000, 0.000, 15:30:30.952, 1587846630952
105, 131.75, -260.55, 109.69, 11.55, 0.000, 0.000, 0.000, 15:30:30.965, 1587846630965
106, 133.89, -267.91, 97.94, 12.99, 0.000, 0.000, 0.000, 15:30:30.965, 1587846630965
107, 147.40, -249.31, 107.63, 21.06, 0.000, 0.000, 0.000, 15:30:30.966, 1587846630966
108, 151.00, -247.04, 110.45, 15.64, 0.000, 0.000, 0.000, 15:30:30.966, 1587846630966
109, 145.19, -257.94, 91.25, 7.22, 0.000, 0.000, 0.000, 15:30:30.980, 1587846630980
110, 140.56, -251.23, 102.66, 24.81, 0.000, 0.000, 0.000, 15:30:30.980, 1587846630980
111, 142.10, -249.18, 114.21, 19.54, 0.000, 0.000, 0.000, 15:30:30.996, 1587846630996
112, 134.28, -261.18, 103.63, 10.64, 0.000, 0.000, 0.000, 15:30:30.996, 1587846630996
113, 144.23, -249.79, 105.33, 19.85, 0.000, 0.000, 0.000, 15:30:30.996, 1587846630996
114, 142.23, -254.86, 114.11, 17.34, 0.000, 0.000, 0.000, 15:30:30.996, 1587846630996
115, 130.72, -254.00, 106.55, 12.10, 0.000, 0.000, 0.000, 15:30:31.010, 1587846631010
116, 131.89, -254.91, 107.24, 13.80, 0.000, 0.000, 0.000, 15:30:31.010, 1587846631010
117, 143.76, -258.96, 107.98, 21.26, 0.000, 0.000, 0.000, 15:30:31.026, 1587846631026
118, 139.37, -249.91, 111.42, 13.32, 0.000, 0.000, 0.000, 15:30:31.026, 1587846631026
119, 135.58, -263.64, 90.93, 14.78, 0.000, 0.000, 0.000, 15:30:31.026, 1587846631026
120, 145.44, -256.59, 104.46, 18.50, 0.000, 0.000, 0.000, 15:30:31.026, 1587846631026
121, 145.90, -246.46, 115.77, 17.01, 0.000, 0.000, 0.000, 15:30:31.040, 1587846631040
122, 132.89, -251.21, 103.58, 10.01, 0.000, 0.000, 0.000, 15:30:31.040, 1587846631040
123, 141.78, -243.75, 113.42, 19.48, 0.000, 0.000, 0.000, 15:30:31.071, 1587846631071
124, 149.05, -256.20, 111.31, 18.74, 0.000, 0.000, 0.000, 15:30:31.071, 1587846631071
125, 133.32, -258.44, 110.89, 9.87, 0.000, 0.000, 0.000, 15:30:31.072, 1587846631072
126, 122.71, -261.56, 106.02, 21.14, 0.000, 0.000, 0.000, 15:30:31.072, 1587846631072
127, 142.63, -243.88, 116.60, 21.28, 0.000, 0.000, 0.000, 15:30:31.074, 1587846631074
128, 138.39, -249.36, 108.60, 13.42, 0.000, 0.000, 0.000, 15:30:31.074, 1587846631074
129, 133.88, -259.29, 98.06, 8.17, 0.000, 0.000, 0.000, 15:30:31.074, 1587846631074
130, 147.54, -249.42, 109.55, 20.13, 0.000, 0.000, 0.000, 15:30:31.074, 1587846631074
131, 147.48, -253.62, 108.74, 17.34, 0.000, 0.000, 0.000, 15:30:31.101, 1587846631101
132, 136.78, -256.43, 98.81, 9.43, 0.000, 0.000, 0.000, 15:30:31.101, 1587846631101
133, 136.73, -259.44, 101.64, 19.81, 0.000, 0.000, 0.000, 15:30:31.103, 1587846631103
134, 145.66, -249.18, 119.30, 20.78, 0.000, 0.000, 0.000, 15:30:31.103, 1587846631103
135, 130.46, -239.83, 109.70, 12.46, 0.000, 0.000, 0.000, 15:30:31.116, 1587846631116
136, 133.72, -258.16, 96.04, 17.09, 0.000, 0.000, 0.000, 15:30:31.116, 1587846631116
137, 156.81, -240.21, 111.89, 20.13, 0.000, 0.000, 0.000, 15:30:31.118, 1587846631118
138, 136.72, -255.29, 101.11, 10.35, 0.000, 0.000, 0.000, 15:30:31.118, 1587846631118
139, 126.71, -257.53, 103.17, 13.12, 0.000, 0.000, 0.000, 15:30:31.130, 1587846631130
140, 138.66, -254.15, 106.61, 17.21, 0.000, 0.000, 0.000, 15:30:31.130, 1587846631130
141, 138.88, -250.09, 118.22, 20.02, 0.000, 0.000, 0.000, 15:30:31.146, 1587846631146
142, 122.52, -262.39, 105.71, 14.88, 0.000, 0.000, 0.000, 15:30:31.146, 1587846631146
143, 130.22, -255.40, 106.08, 19.30, 0.000, 0.000, 0.000, 15:30:31.148, 1587846631148
144, 133.98, -246.54, 119.29, 18.34, 0.000, 0.000, 0.000, 15:30:31.148, 1587846631148
145, 140.74, -247.81, 114.15, 10.98, 0.000, 0.000, 0.000, 15:30:31.160, 1587846631160
146, 147.12, -262.78, 103.99, 14.91, 0.000, 0.000, 0.000, 15:30:31.160, 1587846631160
147, 150.97, -252.50, 100.64, 20.67, 0.000, 0.000, 0.000, 15:30:31.175, 1587846631175
148, 137.67, -254.44, 112.23, 11.64, 0.000, 0.000, 0.000, 15:30:31.175, 1587846631175
149, 131.23, -257.28, 99.59, 10.34, 0.000, 0.000, 0.000, 15:30:31.177, 1587846631177
150, 141.29, -234.99, 108.28, 20.92, 0.000, 0.000, 0.000, 15:30:31.177, 1587846631177
151, 146.19, -243.49, 103.53, 16.92, 0.000, 0.000, 0.000, 15:30:31.206, 1587846631206
152, 130.70, -257.47, 99.45, 11.77, 0.000, 0.000, 0.000, 15:30:31.206, 1587846631206
153, 143.19, -252.07, 108.66, 16.01, 0.000, 0.000, 0.000, 15:30:31.207, 1587846631207
154, 146.53, -253.45, 109.91, 19.21, 0.000, 0.000, 0.000, 15:30:31.207, 1587846631207
155, 130.28, -254.53, 103.30, 8.84, 0.000, 0.000, 0.000, 15:30:31.208, 1587846631208
156, 135.20, -268.95, 102.25, 13.53, 0.000, 0.000, 0.000, 15:30:31.208, 1587846631208
157, 146.10, -246.13, 114.87, 27.16, 0.000, 0.000, 0.000, 15:30:31.220, 1587846631220
158, 122.71, -245.77, 109.32, 12.07, 0.000, 0.000, 0.000, 15:30:31.220, 1587846631220
159, 123.07, -262.57, 100.44, 13.40, 0.000, 0.000, 0.000, 15:30:31.236, 1587846631236
160, 141.11, -260.35, 101.87, 24.30, 0.000, 0.000, 0.000, 15:30:31.236, 1587846631236
161, 145.24, -256.61, 109.12, 16.07, 0.000, 0.000, 0.000, 15:30:31.237, 1587846631237
162, 135.17, -263.10, 98.75, 10.36, 0.000, 0.000, 0.000, 15:30:31.237, 1587846631237
163, 126.10, -253.35, 110.56, 20.86, 0.000, 0.000, 0.000, 15:30:31.250, 1587846631250
164, 150.42, -244.36, 121.34, 20.31, 0.000, 0.000, 0.000, 15:30:31.250, 1587846631250
165, 137.71, -261.48, 104.09, 10.59, 0.000, 0.000, 0.000, 15:30:31.266, 1587846631266
166, 138.74, -253.70, 106.54, 16.73, 0.000, 0.000, 0.000, 15:30:31.266, 1587846631266
167, 144.38, -251.01, 109.51, 23.16, 0.000, 0.000, 0.000, 15:30:31.268, 1587846631268
168, 143.36, -256.37, 104.37, 14.86, 0.000, 0.000, 0.000, 15:30:31.268, 1587846631268
169, 127.02, -271.32, 97.39, 11.38, 0.000, 0.000, 0.000, 15:30:31.296, 1587846631296
170, 144.54, -247.69, 112.15, 26.74, 0.000, 0.000, 0.000, 15:30:31.296, 1587846631296
171, 140.02, -250.67, 110.73, 17.73, 0.000, 0.000, 0.000, 15:30:31.299, 1587846631299
172, 143.99, -263.07, 102.06, 10.67, 0.000, 0.000, 0.000, 15:30:31.299, 1587846631299
173, 138.13, -261.41, 102.18, 18.57, 0.000, 0.000, 0.000, 15:30:31.300, 1587846631300
174, 160.30, -246.97, 116.42, 21.34, 0.000, 0.000, 0.000, 15:30:31.300, 1587846631300
175, 144.16, -258.12, 110.42, 7.47, 0.000, 0.000, 0.000, 15:30:31.309, 1587846631309
176, 133.59, -267.19, 84.71, 16.37, 0.000, 0.000, 0.000, 15:30:31.309, 1587846631309
177, 154.66, -241.73, 111.28, 26.55, 0.000, 0.000, 0.000, 15:30:31.326, 1587846631326
178, 141.30, -254.41, 107.01, 15.93, 0.000, 0.000, 0.000, 15:30:31.326, 1587846631326
179, 122.39, -264.98, 91.65, 13.05, 0.000, 0.000, 0.000, 15:30:31.328, 1587846631328
180, 143.72, -253.73, 105.97, 19.89, 0.000, 0.000, 0.000, 15:30:31.328, 1587846631328
181, 149.48, -253.58, 102.54, 15.66, 0.000, 0.000, 0.000, 15:30:31.340, 1587846631340
182, 142.07, -263.48, 103.74, 8.97, 0.000, 0.000, 0.000, 15:30:31.340, 1587846631340
183, 134.59, -273.28, 97.82, 19.08, 0.000, 0.000, 0.000, 15:30:31.356, 1587846631356
184, 145.43, -244.53, 119.98, 22.91, 0.000, 0.000, 0.000, 15:30:31.356, 1587846631356
185, 128.80, -257.47, 98.67, 7.69, 0.000, 0.000, 0.000, 15:30:31.357, 1587846631357
186, 127.32, -263.11, 96.54, 15.86, 0.000, 0.000, 0.000, 15:30:31.357, 1587846631357
187, 141.48, -256.43, 110.39, 16.92, 0.000, 0.000, 0.000, 15:30:31.371, 1587846631371
188, 133.69, -255.38, 113.21, 13.56, 0.000, 0.000, 0.000, 15:30:31.371, 1587846631371
189, 131.83, -259.52, 102.40, 12.80, 0.000, 0.000, 0.000, 15:30:31.387, 1587846631387
190, 142.74, -257.53, 108.30, 20.96, 0.000, 0.000, 0.000, 15:30:31.387, 1587846631387
191, 149.56, -250.01, 109.63, 18.97, 0.000, 0.000, 0.000, 15:30:31.389, 1587846631389
192, 141.84, -264.80, 94.15, 9.75, 0.000, 0.000, 0.000, 15:30:31.389, 1587846631389
193, 139.88, -266.46, 100.17, 16.65, 0.000, 0.000, 0.000, 15:30:31.403, 1587846631403
194, 158.11, -251.94, 117.15, 22.75, 0.000, 0.000, 0.000, 15:30:31.403, 1587846631403
195, 137.68, -254.76, 95.19, 9.69, 0.000, 0.000, 0.000, 15:30:31.434, 1587846631434
196, 136.74, -257.65, 91.53, 15.84, 0.000, 0.000, 0.000, 15:30:31.434, 1587846631434
197, 145.39, -251.74, 111.83, 23.44, 0.000, 0.000, 0.000, 15:30:31.435, 1587846631435
198, 147.77, -251.90, 114.47, 10.79, 0.000, 0.000, 0.000, 15:30:31.435, 1587846631435
199, 138.55, -262.92, 96.97, 12.90, 0.000, 0.000, 0.000, 15:30:31.436, 1587846631436
200, 146.00, -246.57, 108.60, 19.16, 0.000, 0.000, 0.000, 15:30:31.436, 1587846631436
0, 149.77, -259.22, 116.21, 20.75, 0.000, 0.000, 0.000, 15:30:31.437, 1587846631437
1, 137.86, -276.45, 98.98, 7.96, 0.000, 0.000, 0.000, 15:30:31.445, 1587846631445
2, 131.73, -255.52, 104.82, 17.75, 0.000, 0.000, 0.000, 15:30:31.445, 1587846631445
3, 151.51, -246.47, 114.88, 17.95, 0.000, 0.000, 0.000, 15:30:31.461, 1587846631461
4, 144.06, -258.49, 105.58, 13.25, 0.000, 0.000, 0.000, 15:30:31.461, 1587846631461
5, 129.24, -262.61, 104.72, 15.10, 0.000, 0.000, 0.000, 15:30:31.462, 1587846631462
6, 152.25, -252.22, 113.59, 21.18, 0.000, 0.000, 0.000, 15:30:31.462, 1587846631462
7, 152.19, -257.71, 113.21, 13.56, 0.000, 0.000, 0.000, 15:30:31.475, 1587846631475
8, 133.78, -266.16, 99.77, 10.39, 0.000, 0.000, 0.000, 15:30:31.475, 1587846631475
9, 146.79, -251.76, 114.77, 21.79, 0.000, 0.000, 0.000, 15:30:31.490, 1587846631490
10, 152.71, -239.88, 115.46, 23.83, 0.000, 0.000, 0.000, 15:30:31.490, 1587846631490
11, 137.38, -256.45, 104.52, 14.16, 0.000, 0.000, 0.000, 15:30:31.492, 1587846631492
12, 136.68, -249.69, 110.05, 19.90, 0.000, 0.000, 0.000, 15:30:31.492, 1587846631492
13, 148.15, -252.27, 110.53, 20.65, 0.000, 0.000, 0.000, 15:30:31.505, 1587846631505
14, 139.29, -250.48, 105.46, 6.40, 0.000, 0.000, 0.000, 15:30:31.505, 1587846631505
15, 131.33, -267.43, 96.35, 17.15, 0.000, 0.000, 0.000, 15:30:31.537, 1587846631537
16, 152.83, -249.31, 120.41, 20.71, 0.000, 0.000, 0.000, 15:30:31.537, 1587846631537
17, 151.07, -245.87, 120.42, 12.44, 0.000, 0.000, 0.000, 15:30:31.538, 1587846631538
18, 129.57, -267.43, 99.77, 13.26, 0.000, 0.000, 0.000, 15:30:31.538, 1587846631538
19, 142.70, -254.20, 116.95, 23.13, 0.000, 0.000, 0.000, 15:30:31.539, 1587846631539
20, 139.81, -251.77, 117.80, 17.26, 0.000, 0.000, 0.000, 15:30:31.539, 1587846631539
21, 129.02, -268.22, 97.66, 10.77, 0.000, 0.000, 0.000, 15:30:31.539, 1587846631539
22, 132.20, -258.73, 103.62, 16.24, 0.000, 0.000, 0.000, 15:30:31.539, 1587846631539
23, 143.75, -246.16, 118.37, 19.02, 0.000, 0.000, 0.000, 15:30:31.550, 1587846631550
24, 129.43, -259.55, 107.77, 12.20, 0.000, 0.000, 0.000, 15:30:31.550, 1587846631550
25, 137.39, -257.81, 111.70, 20.96, 0.000, 0.000, 0.000, 15:30:31.564, 1587846631564
26, 147.22, -248.71, 112.76, 23.59, 0.000, 0.000, 0.000, 15:30:31.564, 1587846631564
27, 143.02, -246.32, 114.76, 13.61, 0.000, 0.000, 0.000, 15:30:31.580, 1587846631580
28, 129.40, -262.34, 96.08, 10.37, 0.000, 0.000, 0.000, 15:30:31.580, 1587846631580
29, 138.18, -253.29, 110.97, 24.43, 0.000, 0.000, 0.000, 15:30:31.581, 1587846631581
30, 144.86, -246.42, 118.23, 17.19, 0.000, 0.000, 0.000, 15:30:31.581, 1587846631581
31, 124.18, -259.15, 108.18, 13.36, 0.000, 0.000, 0.000, 15:30:31.595, 1587846631595
32, 122.42, -255.84, 107.94, 16.50, 0.000, 0.000, 0.000, 15:30:31.595, 1587846631595
33, 142.30, -254.32, 120.27, 16.41, 0.000, 0.000, 0.000, 15:30:31.610, 1587846631610
34, 148.54, -260.98, 109.80, 11.95, 0.000, 0.000, 0.000, 15:30:31.610, 1587846631610
35, 127.84, -268.47, 101.93, 16.58, 0.000, 0.000, 0.000, 15:30:31.627, 1587846631627
36, 153.52, -244.77, 115.78, 24.90, 0.000, 0.000, 0.000, 15:30:31.627, 1587846631627
37, 137.68, -255.88, 107.97, 12.98, 0.000, 0.000, 0.000, 15:30:31.628, 1587846631628
38, 129.17, -263.91, 99.49, 10.89, 0.000, 0.000, 0.000, 15:30:31.629, 1587846631629
39, 130.21, -255.19, 108.82, 22.99, 0.000, 0.000, 0.000, 15:30:31.657, 1587846631657
40, 149.14, -246.75, 114.30, 20.85, 0.000, 0.000, 0.000, 15:30:31.657, 1587846631657
41, 132.04, -261.60, 104.07, 12.79, 0.000, 0.000, 0.000, 15:30:31.658, 1587846631658
42, 148.18, -260.14, 101.73, 19.97, 0.000, 0.000, 0.000, 15:30:31.658, 1587846631658
43, 156.45, -245.03, 117.67, 18.30, 0.000, 0.000, 0.000, 15:30:31.658, 1587846631658
44, 138.25, -260.95, 106.13, 12.26, 0.000, 0.000, 0.000, 15:30:31.658, 1587846631658
45, 132.32, -264.53, 96.79, 17.79, 0.000, 0.000, 0.000, 15:30:31.659, 1587846631659
46, 149.73, -257.48, 105.56, 20.30, 0.000, 0.000, 0.000, 15:30:31.659, 1587846631659
47, 137.47, -254.63, 114.69, 16.33, 0.000, 0.000, 0.000, 15:30:31.670, 1587846631670
48, 136.01, -265.03, 97.18, 8.45, 0.000, 0.000, 0.000, 15:30:31.670, 1587846631670
49, 152.35, -249.18, 104.31, 19.49, 0.000, 0.000, 0.000, 15:30:31.685, 1587846631685
50, 148.54, -247.37, 111.50, 17.90, 0.000, 0.000, 0.000, 15:30:31.685, 1587846631685
51, 126.75, -269.82, 91.26, 13.79, 0.000, 0.000, 0.000, 15:30:31.701, 1587846631701
52, 138.63, -256.76, 110.61, 18.22, 0.000, 0.000, 0.000, 15:30:31.701, 1587846631701
53, 154.64, -258.36, 109.41, 20.77, 0.000, 0.000, 0.000, 15:30:31.702, 1587846631702
54, 139.44, -264.07, 100.95, 11.62, 0.000, 0.000, 0.000, 15:30:31.702, 1587846631702
55, 133.22, -266.08, 96.79, 12.84, 0.000, 0.000, 0.000, 15:30:31.714, 1587846631714
56, 145.21, -241.70, 120.67, 17.68, 0.000, 0.000, 0.000, 15:30:31.714, 1587846631714
57, 141.92, -255.94, 104.90, 15.85, 0.000, 0.000, 0.000, 15:30:31.731, 1587846631731
58, 137.84, -266.84, 91.87, 8.02, 0.000, 0.000, 0.000, 15:30:31.731, 1587846631731
59, 140.63, -266.09, 104.52, 19.69, 0.000, 0.000, 0.000, 15:30:31.732, 1587846631732
60, 159.82, -254.14, 110.76, 13.65, 0.000, 0.000, 0.000, 15:30:31.732, 1587846631732
61, 146.50, -260.24, 96.94, 8.54, 0.000, 0.000, 0.000, 15:30:31.745, 1587846631745
62, 139.56, -250.51, 99.93, 18.42, 0.000, 0.000, 0.000, 15:30:31.745, 1587846631745
63, 152.23, -241.57, 111.70, 22.71, 0.000, 0.000, 0.000, 15:30:31.760, 1587846631760
64, 144.48, -256.16, 102.21, 8.12, 0.000, 0.000, 0.000, 15:30:31.760, 1587846631760
65, 119.70, -255.64, 106.95, 14.65, 0.000, 0.000, 0.000, 15:30:31.762, 1587846631762
66, 151.51, -253.53, 104.44, 19.95, 0.000, 0.000, 0.000, 15:30:31.762, 1587846631762
67, 162.81, -250.86, 107.81, 14.43, 0.000, 0.000, 0.000, 15:30:31.775, 1587846631775
68, 135.32, -271.63, 91.65, 11.47, 0.000, 0.000, 0.000, 15:30:31.775, 1587846631775
69, 138.60, -252.21, 106.00, 25.42, 0.000, 0.000, 0.000, 15:30:31.790, 1587846631790
70, 149.98, -245.02, 109.21, 12.56, 0.000, 0.000, 0.000, 15:30:31.790, 1587846631790
71, 127.73, -260.86, 94.33, 9.34, 0.000, 0.000, 0.000, 15:30:31.791, 1587846631791
72, 138.89, -258.17, 96.86, 15.00, 0.000, 0.000, 0.000, 15:30:31.791, 1587846631791
73, 147.40, -250.82, 103.21, 19.84, 0.000, 0.000, 0.000, 15:30:31.804, 1587846631804
74, 139.10, -251.34, 97.47, 11.11, 0.000, 0.000, 0.000, 15:30:31.804, 1587846631804
75, 147.15, -262.07, 98.39, 16.89, 0.000, 0.000, 0.000, 15:30:31.821, 1587846631821
76, 148.52, -257.63, 103.90, 21.03, 0.000, 0.000, 0.000, 15:30:31.821, 1587846631821
77, 150.58, -246.93, 107.02, 11.87, 0.000, 0.000, 0.000, 15:30:31.822, 1587846631822
78, 142.80, -267.57, 90.55, 11.01, 0.000, 0.000, 0.000, 15:30:31.822, 1587846631822
79, 150.87, -255.07, 105.27, 19.28, 0.000, 0.000, 0.000, 15:30:31.834, 1587846631834
80, 151.62, -233.49, 111.79, 20.14, 0.000, 0.000, 0.000, 15:30:31.834, 1587846631834
81, 133.19, -251.88, 96.29, 12.01, 0.000, 0.000, 0.000, 15:30:31.850, 1587846631850
82, 125.48, -259.03, 98.17, 22.04, 0.000, 0.000, 0.000, 15:30:31.850, 1587846631850
83, 146.47, -235.84, 112.63, 25.69, 0.000, 0.000, 0.000, 15:30:31.850, 1587846631850
84, 139.32, -248.17, 102.25, 11.53, 0.000, 0.000, 0.000, 15:30:31.850, 1587846631850
85, 127.41, -259.53, 98.51, 13.88, 0.000, 0.000, 0.000, 15:30:31.865, 1587846631865
86, 143.02, -244.79, 113.71, 22.39, 0.000, 0.000, 0.000, 15:30:31.865, 1587846631865
87, 133.77, -251.87, 103.21, 14.05, 0.000, 0.000, 0.000, 15:30:31.881, 1587846631881
88, 128.61, -257.98, 96.11, 14.53, 0.000, 0.000, 0.000, 15:30:31.881, 1587846631881
89, 133.41, -257.11, 104.62, 23.70, 0.000, 0.000, 0.000, 15:30:31.882, 1587846631882
90, 136.56, -259.40, 108.77, 18.96, 0.000, 0.000, 0.000, 15:30:31.882, 1587846631882
91, 133.41, -252.48, 98.42, 12.03, 0.000, 0.000, 0.000, 15:30:31.895, 1587846631895
92, 132.62, -244.34, 104.37, 18.82, 0.000, 0.000, 0.000, 15:30:31.895, 1587846631895
93, 161.77, -229.19, 127.45, 19.88, 0.000, 0.000, 0.000, 15:30:31.912, 1587846631912
94, 128.16, -264.67, 98.96, 6.21, 0.000, 0.000, 0.000, 15:30:31.912, 1587846631912
95, 129.16, -271.40, 93.79, 18.83, 0.000, 0.000, 0.000, 15:30:31.914, 1587846631914
96, 148.69, -250.75, 121.31, 24.42, 0.000, 0.000, 0.000, 15:30:31.914, 1587846631914
97, 143.41, -248.49, 117.79, 13.23, 0.000, 0.000, 0.000, 15:30:31.925, 1587846631925
98, 135.24, -252.59, 104.35, 13.40, 0.000, 0.000, 0.000, 15:30:31.925, 1587846631925
99, 151.73, -255.63, 121.25, 16.50, 0.000, 0.000, 0.000, 15:30:31.940, 1587846631940
100, 161.13, -239.29, 136.38, 16.51, 0.000, 0.000, 0.000, 15:30:31.940, 1587846631940
101, 164.48, -232.43, 138.09, 11.44, 0.000, 0.000, 0.000, 15:30:31.943, 1587846631943
102, 172.52, -222.04, 142.37, 15.13, 0.000, 0.000, 0.000, 15:30:31.943, 1587846631943
103, 183.83, -201.65, 148.94, 21.31, 0.000, 0.000, 0.000, 15:30:31.954, 1587846631954
104, 185.32, -187.51, 148.18, 11.83, 0.000, 0.000, 0.000, 15:30:31.954, 1587846631954
105, 186.13, -180.65, 150.68, 18.99, 0.000, 0.000, 0.000, 15:30:31.986, 1587846631986
106, 195.54, -181.46, 149.73, 22.76, 0.000, 0.000, 0.000, 15:30:31.986, 1587846631986
107, 195.25, -168.97, 147.29, 17.87, 0.000, 0.000, 0.000, 15:30:31.987, 1587846631987
108, 204.24, -170.96, 131.94, 16.49, 0.000, 0.000, 0.000, 15:30:31.987, 1587846631987
109, 192.41, -171.24, 137.68, 22.79, 0.000, 0.000, 0.000, 15:30:31.988, 1587846631988
110, 202.56, -172.79, 133.78, 21.23, 0.000, 0.000, 0.000, 15:30:31.988, 1587846631988
111, 142.24, -201.15, 122.10, 10.43, 0.000, 0.000, 0.000, 15:30:31.988, 1587846631988
112, 170.47, -176.38, 136.95, 20.15, 0.000, 0.000, 0.000, 15:30:31.988, 1587846631988
113, 192.37, -175.21, 141.45, 21.36, 0.000, 0.000, 0.000, 15:30:32.001, 1587846632001
114, 164.96, -189.56, 129.14, 11.11, 0.000, 0.000, 0.000, 15:30:32.001, 1587846632001
115, 160.48, -183.18, 126.62, 17.56, 0.000, 0.000, 0.000, 15:30:32.015, 1587846632015
116, 157.89, -190.68, 118.95, 24.26, 0.000, 0.000, 0.000, 15:30:32.015, 1587846632015
117, 149.81, -198.93, 126.18, 20.06, 0.000, 0.000, 0.000, 15:30:32.030, 1587846632030
118, 138.68, -218.73, 120.37, 17.58, 0.000, 0.000, 0.000, 15:30:32.030, 1587846632030
119, 144.17, -213.17, 128.77, 24.91, 0.000, 0.000, 0.000, 15:30:32.030, 1587846632030
120, 142.89, -188.18, 127.14, 17.97, 0.000, 0.000, 0.000, 15:30:32.030, 1587846632030
121, 123.11, -214.41, 111.96, 11.39, 0.000, 0.000, 0.000, 15:30:32.044, 1587846632044
122, 146.05, -204.71, 112.96, 20.57, 0.000, 0.000, 0.000, 15:30:32.044, 1587846632044
123, 137.33, -216.08, 106.55, 18.13, 0.000, 0.000, 0.000, 15:30:32.060, 1587846632060
124, 119.71, -218.49, 110.72, 12.19, 0.000, 0.000, 0.000, 15:30:32.060, 1587846632060
125, 122.83, -234.92, 99.86, 13.99, 0.000, 0.000, 0.000, 15:30:32.061, 1587846632061
126, 124.53, -238.22, 107.90, 16.26, 0.000, 0.000, 0.000, 15:30:32.061, 1587846632061
127, 126.98, -226.03, 108.75, 10.53, 0.000, 0.000, 0.000, 15:30:32.092, 1587846632092
128, 117.90, -250.15, 92.80, 10.63, 0.000, 0.000, 0.000, 15:30:32.092, 1587846632092
129, 131.06, -241.08, 103.96, 22.68, 0.000, 0.000, 0.000, 15:30:32.094, 1587846632094
130, 134.79, -229.96, 108.94, 27.04, 0.000, 0.000, 0.000, 15:30:32.094, 1587846632094
131, 99.02, -252.42, 98.44, 9.90, 0.000, 0.000, 0.000, 15:30:32.095, 1587846632095
132, 111.86, -254.65, 101.67, 12.69, 0.000, 0.000, 0.000, 15:30:32.095, 1587846632095
133, 118.16, -245.60, 111.36, 18.85, 0.000, 0.000, 0.000, 15:30:32.104, 1587846632104
134, 121.50, -246.71, 103.55, 12.14, 0.000, 0.000, 0.000, 15:30:32.104, 1587846632104
135, 120.28, -259.42, 95.71, 20.03, 0.000, 0.000, 0.000, 15:30:32.121, 1587846632121
136, 116.42, -253.82, 108.84, 19.46, 0.000, 0.000, 0.000, 15:30:32.121, 1587846632121
137, 119.81, -254.22, 114.04, 12.36, 0.000, 0.000, 0.000, 15:30:32.123, 1587846632123
138, 111.23, -268.66, 96.72, 9.71, 0.000, 0.000, 0.000, 15:30:32.123, 1587846632123
139, 95.59, -266.96, 102.31, 20.50, 0.000, 0.000, 0.000, 15:30:32.135, 1587846632135
140, 121.11, -250.11, 119.37, 15.90, 0.000, 0.000, 0.000, 15:30:32.135, 1587846632135
141, 117.84, -269.59, 97.54, 9.18, 0.000, 0.000, 0.000, 15:30:32.151, 1587846632151
142, 112.46, -272.74, 98.58, 16.70, 0.000, 0.000, 0.000, 15:30:32.151, 1587846632151
143, 123.01, -262.54, 116.08, 21.12, 0.000, 0.000, 0.000, 15:30:32.152, 1587846632152
144, 115.40, -260.92, 102.67, 12.10, 0.000, 0.000, 0.000, 15:30:32.152, 1587846632152
145, 111.85, -278.18, 95.73, 15.06, 0.000, 0.000, 0.000, 15:30:32.164, 1587846632164
146, 122.65, -264.63, 109.65, 21.75, 0.000, 0.000, 0.000, 15:30:32.164, 1587846632164
147, 101.19, -274.47, 108.67, 16.09, 0.000, 0.000, 0.000, 15:30:32.181, 1587846632181
148, 109.62, -277.03, 110.04, 11.71, 0.000, 0.000, 0.000, 15:30:32.181, 1587846632181
149, 111.48, -268.95, 107.88, 20.42, 0.000, 0.000, 0.000, 15:30:32.182, 1587846632182
150, 125.20, -256.62, 113.82, 18.25, 0.000, 0.000, 0.000, 15:30:32.182, 1587846632182
151, 117.79, -273.60, 95.24, 5.49, 0.000, 0.000, 0.000, 15:30:32.211, 1587846632211
152, 104.42, -279.14, 103.24, 18.89, 0.000, 0.000, 0.000, 15:30:32.211, 1587846632211
153, 119.42, -260.37, 118.52, 24.18, 0.000, 0.000, 0.000, 15:30:32.212, 1587846632212
154, 112.61, -267.48, 106.25, 14.37, 0.000, 0.000, 0.000, 15:30:32.212, 1587846632212
155, 91.54, -274.07, 104.71, 19.05, 0.000, 0.000, 0.000, 15:30:32.214, 1587846632214
156, 131.60, -260.56, 115.58, 23.85, 0.000, 0.000, 0.000, 15:30:32.214, 1587846632214
157, 123.66, -269.04, 104.45, 11.79, 0.000, 0.000, 0.000, 15:30:32.225, 1587846632225
158, 107.96, -280.56, 92.52, 9.97, 0.000, 0.000, 0.000, 15:30:32.225, 1587846632225
159, 123.96, -264.70, 112.32, 19.53, 0.000, 0.000, 0.000, 15:30:32.240, 1587846632240
160, 128.20, -270.78, 114.68, 17.78, 0.000, 0.000, 0.000, 15:30:32.240, 1587846632240
161, 110.74, -274.35, 107.39, 6.83, 0.000, 0.000, 0.000, 15:30:32.241, 1587846632241
162, 98.54, -274.68, 110.17, 15.04, 0.000, 0.000, 0.000, 15:30:32.241, 1587846632241
163, 122.67, -262.46, 116.87, 16.65, 0.000, 0.000, 0.000, 15:30:32.254, 1587846632254
164, 124.82, -261.13, 107.16, 10.71, 0.000, 0.000, 0.000, 15:30:32.254, 1587846632254
165, 113.15, -281.35, 97.95, 12.92, 0.000, 0.000, 0.000, 15:30:32.270, 1587846632270
166, 130.18, -263.41, 113.72, 19.99, 0.000, 0.000, 0.000, 15:30:32.270, 1587846632270
167, 120.97, -277.53, 110.38, 12.01, 0.000, 0.000, 0.000, 15:30:32.270, 1587846632270
168, 95.74, -278.50, 102.82, 8.92, 0.000, 0.000, 0.000, 15:30:32.270, 1587846632270
169, 122.84, -260.30, 112.94, 21.82, 0.000, 0.000, 0.000, 15:30:32.284, 1587846632284
170, 131.72, -264.58, 111.34, 18.13, 0.000, 0.000, 0.000, 15:30:32.284, 1587846632284
171, 120.59, -270.04, 102.51, 6.55, 0.000, 0.000, 0.000, 15:30:32.316, 1587846632316
172, 120.46, -270.33, 95.94, 13.93, 0.000, 0.000, 0.000, 15:30:32.316, 1587846632316
173, 141.22, -254.05, 121.86, 20.44, 0.000, 0.000, 0.000, 15:30:32.317, 1587846632317
174, 128.07, -270.33, 108.92, 9.10, 0.000, 0.000, 0.000, 15:30:32.317, 1587846632317
175, 113.10, -268.16, 97.29, 16.75, 0.000, 0.000, 0.000, 15:30:32.318, 1587846632318
176, 121.25, -273.97, 109.00, 23.62, 0.000, 0.000, 0.000, 15:30:32.318, 1587846632318
177, 125.98, -264.44, 112.08, 15.02, 0.000, 0.000, 0.000, 15:30:32.318, 1587846632318
178, 122.12, -262.63, 101.00, 8.11, 0.000, 0.000, 0.000, 15:30:32.318, 1587846632318
179, 139.86, -268.64, 105.30, 22.67, 0.000, 0.000, 0.000, 15:30:32.330, 1587846632330
180, 129.11, -266.26, 116.14, 16.63, 0.000, 0.000, 0.000, 15:30:32.330, 1587846632330
181, 119.88, -265.72, 103.79, 13.41, 0.000, 0.000, 0.000, 15:30:32.344, 1587846632344
182, 121.31, -256.23, 105.61, 18.34, 0.000, 0.000, 0.000, 15:30:32.344, 1587846632344
183, 130.91, -258.91, 109.46, 21.10, 0.000, 0.000, 0.000, 15:30:32.364, 1587846632364
184, 135.51, -261.55, 105.13, 9.19, 0.000, 0.000, 0.000, 15:30:32.364, 1587846632364
185, 140.13, -270.86, 100.66, 11.23, 0.000, 0.000, 0.000, 15:30:32.366, 1587846632366
186, 146.66, -252.84, 114.66, 23.06, 0.000, 0.000, 0.000, 15:30:32.366, 1587846632366
187, 134.60, -265.63, 108.27, 14.68, 0.000, 0.000, 0.000, 15:30:32.374, 1587846632374
188, 116.80, -259.69, 104.55, 11.69, 0.000, 0.000, 0.000, 15:30:32.374, 1587846632374
189, 131.14, -255.13, 118.90, 20.15, 0.000, 0.000, 0.000, 15:30:32.390, 1587846632390
190, 138.97, -268.24, 127.52, 17.96, 0.000, 0.000, 0.000, 15:30:32.390, 1587846632390
191, 120.39, -253.74, 108.56, 17.65, 0.000, 0.000, 0.000, 15:30:32.406, 1587846632406
192, 120.96, -251.86, 112.11, 17.60, 0.000, 0.000, 0.000, 15:30:32.406, 1587846632406
193, 130.00, -266.48, 111.72, 19.96, 0.000, 0.000, 0.000, 15:30:32.407, 1587846632407
194, 136.33, -265.35, 107.43, 11.49, 0.000, 0.000, 0.000, 15:30:32.407, 1587846632407
195, 116.82, -272.10, 100.85, 16.44, 0.000, 0.000, 0.000, 15:30:32.421, 1587846632421
196, 126.40, -260.30, 118.72, 21.01, 0.000, 0.000, 0.000, 15:30:32.421, 1587846632421
197, 137.11, -264.78, 118.16, 13.48, 0.000, 0.000, 0.000, 15:30:32.421, 1587846632421
198, 121.06, -263.63, 99.83, 11.47, 0.000, 0.000, 0.000, 15:30:32.421, 1587846632421
199, 127.19, -260.53, 109.78, 18.26, 0.000, 0.000, 0.000, 15:30:32.435, 1587846632435
200, 135.12, -260.20, 115.61, 21.46, 0.000, 0.000, 0.000, 15:30:32.435, 1587846632435
0, 105.38, -271.36, 105.73, 7.77, 0.000, 0.000, 0.000, 15:30:32.436, 1587846632436
