%OpenBCI Raw EEG Data
%Number of channels = 4
%Sample Rate = 200.0 Hz
%First Column = SampleIndex
%Last Column = Timestamp 
%Other Columns = EEG data in microvolts followed by Accel Data (in G) interleaved with Aux Data
0, 125.11, -280.46, 114.80, 11.06, 0.000, 0.000, 0.000, 15:33:53.999, 1587846833999
1, 111.83, -280.39, 106.62, 21.44, 0.000, 0.000, 0.000, 15:33:54.013, 1587846834013
2, 127.95, -275.19, 119.80, 22.61, 0.000, 0.000, 0.000, 15:33:54.013, 1587846834013
3, 128.98, -281.00, 110.50, 8.44, 0.000, 0.000, 0.000, 15:33:54.029, 1587846834029
4, 117.08, -276.24, 104.04, 16.57, 0.000, 0.000, 0.000, 15:33:54.029, 1587846834029
5, 115.85, -286.81, 105.20, 15.36, 0.000, 0.000, 0.000, 15:33:54.030, 1587846834030
6, 120.66, -269.81, 120.11, 12.24, 0.000, 0.000, 0.000, 15:33:54.030, 1587846834030
7, 98.99, -304.00, 98.25, 13.55, 0.000, 0.000, 0.000, 15:33:54.044, 1587846834044
8, 134.11, -280.29, 108.35, 24.09, 0.000, 0.000, 0.000, 15:33:54.044, 1587846834044
9, 117.41, -262.66, 121.62, 17.23, 0.000, 0.000, 0.000, 15:33:54.059, 1587846834059
10, 120.66, -285.52, 105.51, 10.29, 0.000, 0.000, 0.000, 15:33:54.059, 1587846834059
11, 130.60, -274.18, 113.75, 21.22, 0.000, 0.000, 0.000, 15:33:54.059, 1587846834059
12, 117.84, -288.74, 106.04, 15.32, 0.000, 0.000, 0.000, 15:33:54.059, 1587846834059
13, 113.09, -291.41, 100.36, 8.10, 0.000, 0.000, 0.000, 15:33:54.073, 1587846834073
14, 121.39, -263.55, 113.25, 20.27, 0.000, 0.000, 0.000, 15:33:54.073, 1587846834073
15, 139.78, -270.15, 111.94, 19.19, 0.000, 0.000, 0.000, 15:33:54.088, 1587846834088
16, 118.79, -278.37, 105.26, 5.33, 0.000, 0.000, 0.000, 15:33:54.088, 1587846834088
17, 125.03, -278.11, 109.60, 14.80, 0.000, 0.000, 0.000, 15:33:54.106, 1587846834106
18, 119.36, -273.87, 115.15, 22.86, 0.000, 0.000, 0.000, 15:33:54.106, 1587846834106
19, 112.76, -296.12, 102.25, 8.19, 0.000, 0.000, 0.000, 15:33:54.113, 1587846834113
20, 132.73, -276.24, 111.36, 14.03, 0.000, 0.000, 0.000, 15:33:54.113, 1587846834113
21, 114.85, -286.60, 112.98, 20.94, 0.000, 0.000, 0.000, 15:33:54.120, 1587846834120
22, 118.88, -274.62, 123.45, 11.38, 0.000, 0.000, 0.000, 15:33:54.120, 1587846834120
23, 125.50, -262.20, 121.09, 12.61, 0.000, 0.000, 0.000, 15:33:54.129, 1587846834129
24, 118.03, -267.78, 112.94, 18.22, 0.000, 0.000, 0.000, 15:33:54.129, 1587846834129
25, 137.17, -272.65, 120.24, 21.76, 0.000, 0.000, 0.000, 15:33:54.134, 1587846834134
26, 131.55, -283.27, 94.98, 13.79, 0.000, 0.000, 0.000, 15:33:54.134, 1587846834134
27, 117.13, -270.38, 116.51, 14.36, 0.000, 0.000, 0.000, 15:33:54.153, 1587846834153
28, 128.49, -257.05, 126.16, 18.88, 0.000, 0.000, 0.000, 15:33:54.153, 1587846834153
29, 123.89, -272.74, 106.79, 17.62, 0.000, 0.000, 0.000, 15:33:54.156, 1587846834156
30, 93.06, -277.89, 103.43, 8.47, 0.000, 0.000, 0.000, 15:33:54.156, 1587846834156
31, 130.72, -280.48, 94.45, 19.74, 0.000, 0.000, 0.000, 15:33:54.163, 1587846834163
32, 139.50, -266.45, 120.01, 20.23, 0.000, 0.000, 0.000, 15:33:54.163, 1587846834163
33, 123.51, -279.20, 115.36, 8.85, 0.000, 0.000, 0.000, 15:33:54.179, 1587846834179
34, 120.44, -270.24, 108.50, 14.58, 0.000, 0.000, 0.000, 15:33:54.179, 1587846834179
35, 138.60, -261.33, 115.90, 21.57, 0.000, 0.000, 0.000, 15:33:54.182, 1587846834182
36, 122.33, -285.28, 99.92, 12.81, 0.000, 0.000, 0.000, 15:33:54.182, 1587846834182
37, 108.20, -282.61, 101.06, 15.14, 0.000, 0.000, 0.000, 15:33:54.195, 1587846834195
38, 131.91, -282.58, 104.42, 23.18, 0.000, 0.000, 0.000, 15:33:54.195, 1587846834195
39, 127.52, -275.27, 119.28, 18.79, 0.000, 0.000, 0.000, 15:33:54.209, 1587846834209
40, 118.57, -283.05, 107.20, 9.50, 0.000, 0.000, 0.000, 15:33:54.209, 1587846834209
41, 125.98, -271.04, 102.75, 23.37, 0.000, 0.000, 0.000, 15:33:54.209, 1587846834209
42, 128.77, -264.85, 115.95, 18.59, 0.000, 0.000, 0.000, 15:33:54.209, 1587846834209
43, 115.09, -280.92, 110.18, 13.26, 0.000, 0.000, 0.000, 15:33:54.225, 1587846834225
44, 124.91, -280.09, 103.48, 16.85, 0.000, 0.000, 0.000, 15:33:54.225, 1587846834225
45, 127.82, -269.39, 107.67, 25.90, 0.000, 0.000, 0.000, 15:33:54.239, 1587846834239
46, 113.82, -275.38, 102.85, 10.55, 0.000, 0.000, 0.000, 15:33:54.239, 1587846834239
47, 121.82, -284.49, 103.75, 14.59, 0.000, 0.000, 0.000, 15:33:54.239, 1587846834239
48, 136.21, -261.30, 115.72, 21.38, 0.000, 0.000, 0.000, 15:33:54.239, 1587846834239
49, 142.04, -266.66, 111.96, 18.88, 0.000, 0.000, 0.000, 15:33:54.253, 1587846834253
50, 103.30, -275.51, 104.78, 10.87, 0.000, 0.000, 0.000, 15:33:54.253, 1587846834253
51, 134.86, -262.19, 112.96, 21.45, 0.000, 0.000, 0.000, 15:33:54.269, 1587846834269
52, 152.50, -265.08, 112.50, 18.78, 0.000, 0.000, 0.000, 15:33:54.269, 1587846834269
53, 123.51, -259.37, 106.20, 11.57, 0.000, 0.000, 0.000, 15:33:54.270, 1587846834270
54, 107.10, -282.12, 95.73, 15.78, 0.000, 0.000, 0.000, 15:33:54.270, 1587846834270
55, 139.98, -257.80, 115.62, 18.58, 0.000, 0.000, 0.000, 15:33:54.283, 1587846834283
56, 136.98, -259.62, 115.52, 9.38, 0.000, 0.000, 0.000, 15:33:54.283, 1587846834283
57, 134.19, -281.01, 92.32, 11.32, 0.000, 0.000, 0.000, 15:33:54.298, 1587846834298
58, 124.48, -283.96, 97.49, 22.89, 0.000, 0.000, 0.000, 15:33:54.298, 1587846834298
59, 133.59, -263.47, 113.55, 14.13, 0.000, 0.000, 0.000, 15:33:54.299, 1587846834299
60, 130.16, -273.45, 103.09, 10.23, 0.000, 0.000, 0.000, 15:33:54.299, 1587846834299
61, 132.67, -272.18, 97.17, 19.34, 0.000, 0.000, 0.000, 15:33:54.313, 1587846834313
62, 141.36, -269.66, 108.38, 19.07, 0.000, 0.000, 0.000, 15:33:54.313, 1587846834313
63, 125.20, -277.04, 100.03, 7.94, 0.000, 0.000, 0.000, 15:33:54.344, 1587846834344
64, 105.57, -282.26, 93.91, 17.57, 0.000, 0.000, 0.000, 15:33:54.344, 1587846834344
65, 120.50, -262.52, 112.54, 20.22, 0.000, 0.000, 0.000, 15:33:54.345, 1587846834345
66, 141.30, -269.51, 110.69, 11.84, 0.000, 0.000, 0.000, 15:33:54.345, 1587846834345
67, 128.20, -274.71, 98.65, 17.57, 0.000, 0.000, 0.000, 15:33:54.346, 1587846834346
68, 127.89, -271.41, 109.26, 18.94, 0.000, 0.000, 0.000, 15:33:54.346, 1587846834346
69, 140.15, -264.04, 110.51, 13.97, 0.000, 0.000, 0.000, 15:33:54.347, 1587846834347
70, 126.68, -266.97, 99.86, 10.01, 0.000, 0.000, 0.000, 15:33:54.347, 1587846834347
71, 128.80, -269.16, 105.58, 19.99, 0.000, 0.000, 0.000, 15:33:54.359, 1587846834359
72, 130.15, -265.36, 111.31, 21.26, 0.000, 0.000, 0.000, 15:33:54.359, 1587846834359
73, 128.56, -275.36, 88.66, 9.89, 0.000, 0.000, 0.000, 15:33:54.373, 1587846834373
74, 123.89, -272.89, 94.11, 10.98, 0.000, 0.000, 0.000, 15:33:54.373, 1587846834373
75, 144.99, -260.13, 129.88, 20.62, 0.000, 0.000, 0.000, 15:33:54.389, 1587846834389
76, 120.42, -278.27, 123.01, 14.77, 0.000, 0.000, 0.000, 15:33:54.389, 1587846834389
77, 105.95, -280.02, 116.21, 10.70, 0.000, 0.000, 0.000, 15:33:54.404, 1587846834404
78, 109.29, -277.76, 137.93, 23.24, 0.000, 0.000, 0.000, 15:33:54.404, 1587846834404
79, 96.25, -280.28, 142.33, 14.16, 0.000, 0.000, 0.000, 15:33:54.405, 1587846834405
80, 82.83, -282.94, 136.24, 9.25, 0.000, 0.000, 0.000, 15:33:54.405, 1587846834405
81, 86.62, -275.54, 135.72, 17.18, 0.000, 0.000, 0.000, 15:33:54.420, 1587846834420
82, 92.20, -269.07, 153.52, 16.13, 0.000, 0.000, 0.000, 15:33:54.420, 1587846834420
83, 86.40, -274.36, 144.80, 13.50, 0.000, 0.000, 0.000, 15:33:54.426, 1587846834426
84, 91.54, -287.09, 131.95, 15.10, 0.000, 0.000, 0.000, 15:33:54.426, 1587846834426
85, 93.54, -268.84, 147.37, 21.52, 0.000, 0.000, 0.000, 15:33:54.434, 1587846834434
86, 103.29, -278.97, 137.23, 13.05, 0.000, 0.000, 0.000, 15:33:54.434, 1587846834434
87, 106.43, -279.97, 130.79, 15.74, 0.000, 0.000, 0.000, 15:33:54.448, 1587846834448
88, 112.89, -263.71, 136.53, 21.57, 0.000, 0.000, 0.000, 15:33:54.448, 1587846834448
89, 107.17, -268.73, 141.88, 17.95, 0.000, 0.000, 0.000, 15:33:54.450, 1587846834450
90, 96.88, -274.94, 137.98, 11.81, 0.000, 0.000, 0.000, 15:33:54.450, 1587846834450
91, 89.08, -276.93, 137.99, 18.00, 0.000, 0.000, 0.000, 15:33:54.463, 1587846834463
92, 81.40, -282.83, 145.19, 16.17, 0.000, 0.000, 0.000, 15:33:54.463, 1587846834463
93, 112.86, -275.78, 129.82, 11.28, 0.000, 0.000, 0.000, 15:33:54.479, 1587846834479
94, 104.40, -266.12, 128.83, 21.04, 0.000, 0.000, 0.000, 15:33:54.479, 1587846834479
95, 108.49, -266.50, 134.56, 21.54, 0.000, 0.000, 0.000, 15:33:54.480, 1587846834480
96, 89.80, -268.52, 138.21, 9.58, 0.000, 0.000, 0.000, 15:33:54.480, 1587846834480
97, 88.64, -282.20, 124.33, 10.59, 0.000, 0.000, 0.000, 15:33:54.494, 1587846834494
98, 99.85, -273.93, 140.84, 21.94, 0.000, 0.000, 0.000, 15:33:54.494, 1587846834494
99, 96.34, -275.31, 133.58, 14.64, 0.000, 0.000, 0.000, 15:33:54.508, 1587846834508
100, 95.47, -284.37, 131.15, 9.68, 0.000, 0.000, 0.000, 15:33:54.508, 1587846834508
101, 96.86, -265.64, 139.83, 22.94, 0.000, 0.000, 0.000, 15:33:54.509, 1587846834509
102, 112.06, -258.65, 141.64, 18.18, 0.000, 0.000, 0.000, 15:33:54.509, 1587846834509
103, 90.42, -277.01, 128.69, 7.16, 0.000, 0.000, 0.000, 15:33:54.523, 1587846834523
104, 102.99, -272.43, 131.08, 15.51, 0.000, 0.000, 0.000, 15:33:54.523, 1587846834523
105, 117.50, -260.73, 136.53, 23.64, 0.000, 0.000, 0.000, 15:33:54.539, 1587846834539
106, 109.19, -277.57, 120.21, 14.52, 0.000, 0.000, 0.000, 15:33:54.539, 1587846834539
107, 98.88, -276.95, 115.11, 14.88, 0.000, 0.000, 0.000, 15:33:54.540, 1587846834540
108, 116.63, -259.73, 129.61, 15.43, 0.000, 0.000, 0.000, 15:33:54.540, 1587846834540
109, 111.73, -255.55, 136.27, 15.00, 0.000, 0.000, 0.000, 15:33:54.553, 1587846834553
110, 98.03, -261.75, 131.59, 14.77, 0.000, 0.000, 0.000, 15:33:54.553, 1587846834553
111, 105.68, -263.48, 134.49, 18.51, 0.000, 0.000, 0.000, 15:33:54.569, 1587846834569
112, 135.49, -258.80, 137.44, 14.91, 0.000, 0.000, 0.000, 15:33:54.569, 1587846834569
113, 130.00, -275.77, 119.27, 12.91, 0.000, 0.000, 0.000, 15:33:54.570, 1587846834570
114, 115.20, -279.30, 111.16, 21.01, 0.000, 0.000, 0.000, 15:33:54.570, 1587846834570
115, 120.00, -254.65, 128.26, 21.18, 0.000, 0.000, 0.000, 15:33:54.583, 1587846834583
116, 110.42, -258.42, 137.57, 12.83, 0.000, 0.000, 0.000, 15:33:54.583, 1587846834583
117, 100.34, -285.19, 116.23, 11.95, 0.000, 0.000, 0.000, 15:33:54.598, 1587846834598
118, 106.02, -268.80, 131.15, 16.54, 0.000, 0.000, 0.000, 15:33:54.598, 1587846834598
119, 114.81, -274.27, 126.36, 16.49, 0.000, 0.000, 0.000, 15:33:54.599, 1587846834599
120, 97.83, -277.67, 120.29, 13.50, 0.000, 0.000, 0.000, 15:33:54.599, 1587846834599
121, 116.71, -263.93, 127.06, 22.86, 0.000, 0.000, 0.000, 15:33:54.612, 1587846834612
122, 131.44, -255.83, 136.49, 17.77, 0.000, 0.000, 0.000, 15:33:54.612, 1587846834612
123, 116.53, -267.01, 116.55, 11.26, 0.000, 0.000, 0.000, 15:33:54.629, 1587846834629
124, 113.09, -270.62, 109.11, 20.05, 0.000, 0.000, 0.000, 15:33:54.629, 1587846834629
125, 112.71, -262.72, 128.21, 18.23, 0.000, 0.000, 0.000, 15:33:54.631, 1587846834631
126, 122.83, -261.39, 125.24, 7.27, 0.000, 0.000, 0.000, 15:33:54.631, 1587846834631
127, 108.98, -279.73, 117.30, 13.01, 0.000, 0.000, 0.000, 15:33:54.643, 1587846834643
128, 112.21, -266.02, 114.50, 19.29, 0.000, 0.000, 0.000, 15:33:54.643, 1587846834643
129, 120.07, -257.15, 124.89, 12.90, 0.000, 0.000, 0.000, 15:33:54.658, 1587846834658
130, 102.23, -266.97, 117.60, 12.50, 0.000, 0.000, 0.000, 15:33:54.658, 1587846834658
131, 125.89, -261.59, 125.86, 16.98, 0.000, 0.000, 0.000, 15:33:54.660, 1587846834660
132, 122.18, -268.40, 126.70, 19.45, 0.000, 0.000, 0.000, 15:33:54.660, 1587846834660
133, 113.14, -267.57, 111.94, 16.22, 0.000, 0.000, 0.000, 15:33:54.673, 1587846834673
134, 107.12, -272.94, 111.52, 16.03, 0.000, 0.000, 0.000, 15:33:54.673, 1587846834673
135, 118.09, -262.69, 130.83, 19.70, 0.000, 0.000, 0.000, 15:33:54.688, 1587846834688
136, 110.20, -269.68, 117.65, 9.80, 0.000, 0.000, 0.000, 15:33:54.688, 1587846834688
137, 113.37, -266.04, 116.14, 16.36, 0.000, 0.000, 0.000, 15:33:54.689, 1587846834689
138, 130.49, -258.34, 123.48, 22.51, 0.000, 0.000, 0.000, 15:33:54.689, 1587846834689
139, 129.83, -252.69, 118.60, 8.59, 0.000, 0.000, 0.000, 15:33:54.703, 1587846834703
140, 121.09, -261.75, 106.22, 11.16, 0.000, 0.000, 0.000, 15:33:54.703, 1587846834703
141, 113.26, -265.07, 110.03, 18.18, 0.000, 0.000, 0.000, 15:33:54.719, 1587846834719
142, 113.77, -258.95, 126.05, 15.45, 0.000, 0.000, 0.000, 15:33:54.719, 1587846834719
143, 100.81, -278.25, 107.52, 6.18, 0.000, 0.000, 0.000, 15:33:54.720, 1587846834720
144, 123.00, -266.50, 117.17, 15.25, 0.000, 0.000, 0.000, 15:33:54.720, 1587846834720
145, 131.88, -256.50, 121.15, 18.01, 0.000, 0.000, 0.000, 15:33:54.733, 1587846834733
146, 130.71, -248.94, 123.41, 15.62, 0.000, 0.000, 0.000, 15:33:54.733, 1587846834733
147, 111.78, -269.13, 110.04, 14.97, 0.000, 0.000, 0.000, 15:33:54.749, 1587846834749
148, 122.36, -266.79, 105.65, 20.88, 0.000, 0.000, 0.000, 15:33:54.749, 1587846834749
149, 115.86, -262.51, 138.57, 16.99, 0.000, 0.000, 0.000, 15:33:54.750, 1587846834750
150, 120.97, -272.13, 119.92, 10.16, 0.000, 0.000, 0.000, 15:33:54.750, 1587846834750
151, 120.68, -261.33, 119.06, 15.31, 0.000, 0.000, 0.000, 15:33:54.765, 1587846834765
152, 137.76, -254.55, 124.46, 17.39, 0.000, 0.000, 0.000, 15:33:54.765, 1587846834765
153, 109.49, -266.04, 114.91, 14.57, 0.000, 0.000, 0.000, 15:33:54.779, 1587846834779
154, 100.58, -265.53, 112.71, 17.58, 0.000, 0.000, 0.000, 15:33:54.779, 1587846834779
155, 133.59, -262.31, 117.03, 22.11, 0.000, 0.000, 0.000, 15:33:54.779, 1587846834779
156, 124.28, -265.78, 121.17, 14.95, 0.000, 0.000, 0.000, 15:33:54.779, 1587846834779
157, 122.81, -262.85, 112.71, 13.59, 0.000, 0.000, 0.000, 15:33:54.795, 1587846834795
158, 133.35, -254.29, 114.53, 18.57, 0.000, 0.000, 0.000, 15:33:54.795, 1587846834795
159, 131.48, -266.73, 118.41, 15.55, 0.000, 0.000, 0.000, 15:33:54.809, 1587846834809
160, 113.01, -260.09, 123.53, 8.00, 0.000, 0.000, 0.000, 15:33:54.809, 1587846834809
161, 118.81, -263.64, 118.85, 16.99, 0.000, 0.000, 0.000, 15:33:54.809, 1587846834809
162, 137.56, -256.54, 134.84, 17.32, 0.000, 0.000, 0.000, 15:33:54.809, 1587846834809
163, 122.39, -252.61, 111.70, 13.50, 0.000, 0.000, 0.000, 15:33:54.823, 1587846834823
164, 115.45, -257.28, 106.65, 17.20, 0.000, 0.000, 0.000, 15:33:54.823, 1587846834823
165, 133.45, -249.63, 126.98, 23.76, 0.000, 0.000, 0.000, 15:33:54.840, 1587846834840
166, 112.42, -245.26, 126.15, 12.27, 0.000, 0.000, 0.000, 15:33:54.840, 1587846834840
167, 128.65, -252.65, 111.24, 14.35, 0.000, 0.000, 0.000, 15:33:54.841, 1587846834841
168, 129.35, -256.07, 113.50, 16.78, 0.000, 0.000, 0.000, 15:33:54.841, 1587846834841
169, 135.87, -252.92, 115.55, 12.73, 0.000, 0.000, 0.000, 15:33:54.854, 1587846834854
170, 127.85, -250.53, 109.17, 10.51, 0.000, 0.000, 0.000, 15:33:54.854, 1587846834854
171, 126.45, -264.91, 105.80, 23.09, 0.000, 0.000, 0.000, 15:33:54.871, 1587846834871
172, 133.19, -249.05, 130.46, 20.22, 0.000, 0.000, 0.000, 15:33:54.871, 1587846834871
173, 102.19, -260.49, 112.58, 9.25, 0.000, 0.000, 0.000, 15:33:54.873, 1587846834873
174, 117.87, -272.45, 109.92, 16.58, 0.000, 0.000, 0.000, 15:33:54.873, 1587846834873
175, 139.55, -250.11, 119.66, 21.92, 0.000, 0.000, 0.000, 15:33:54.899, 1587846834899
176, 146.87, -238.58, 107.70, 14.02, 0.000, 0.000, 0.000, 15:33:54.899, 1587846834899
177, 130.34, -254.90, 102.68, 16.60, 0.000, 0.000, 0.000, 15:33:54.901, 1587846834901
178, 129.11, -251.92, 118.53, 22.62, 0.000, 0.000, 0.000, 15:33:54.901, 1587846834901
179, 129.38, -250.12, 107.49, 17.93, 0.000, 0.000, 0.000, 15:33:54.902, 1587846834902
180, 128.57, -264.65, 94.55, 6.47, 0.000, 0.000, 0.000, 15:33:54.902, 1587846834902
181, 124.44, -264.11, 98.67, 21.07, 0.000, 0.000, 0.000, 15:33:54.913, 1587846834913
182, 127.89, -254.39, 123.21, 20.68, 0.000, 0.000, 0.000, 15:33:54.913, 1587846834913
183, 126.55, -253.20, 116.05, 11.67, 0.000, 0.000, 0.000, 15:33:54.928, 1587846834928
184, 108.60, -264.40, 100.30, 15.89, 0.000, 0.000, 0.000, 15:33:54.928, 1587846834928
185, 122.30, -250.27, 121.34, 22.08, 0.000, 0.000, 0.000, 15:33:54.929, 1587846834929
186, 140.54, -247.73, 111.48, 12.67, 0.000, 0.000, 0.000, 15:33:54.929, 1587846834929
187, 125.17, -271.47, 94.64, 12.06, 0.000, 0.000, 0.000, 15:33:54.943, 1587846834943
188, 128.44, -253.97, 103.06, 25.64, 0.000, 0.000, 0.000, 15:33:54.943, 1587846834943
189, 133.56, -236.69, 115.53, 15.98, 0.000, 0.000, 0.000, 15:33:54.975, 1587846834975
190, 116.03, -259.49, 112.54, 14.68, 0.000, 0.000, 0.000, 15:33:54.975, 1587846834975
191, 119.66, -255.70, 110.73, 19.84, 0.000, 0.000, 0.000, 15:33:54.978, 1587846834978
192, 117.17, -249.67, 113.43, 19.41, 0.000, 0.000, 0.000, 15:33:54.978, 1587846834978
193, 115.39, -253.39, 110.78, 11.23, 0.000, 0.000, 0.000, 15:33:54.978, 1587846834978
194, 136.29, -253.73, 114.56, 17.20, 0.000, 0.000, 0.000, 15:33:54.978, 1587846834978
195, 142.84, -245.51, 107.27, 20.34, 0.000, 0.000, 0.000, 15:33:54.979, 1587846834979
196, 122.04, -254.22, 113.01, 11.58, 0.000, 0.000, 0.000, 15:33:54.979, 1587846834979
197, 127.01, -258.78, 114.63, 13.33, 0.000, 0.000, 0.000, 15:33:54.989, 1587846834989
198, 125.54, -254.57, 116.20, 20.35, 0.000, 0.000, 0.000, 15:33:54.989, 1587846834989
199, 135.48, -250.16, 119.51, 16.06, 0.000, 0.000, 0.000, 15:33:55.006, 1587846835006
200, 128.40, -268.14, 109.66, 9.24, 0.000, 0.000, 0.000, 15:33:55.006, 1587846835006
0, 130.05, -255.58, 113.85, 20.36, 0.000, 0.000, 0.000, 15:33:55.009, 1587846835009
1, 145.12, -238.20, 134.02, 17.29, 0.000, 0.000, 0.000, 15:33:55.018, 1587846835018
2, 117.16, -266.64, 97.94, 10.77, 0.000, 0.000, 0.000, 15:33:55.018, 1587846835018
3, 120.36, -258.98, 111.71, 21.04, 0.000, 0.000, 0.000, 15:33:55.036, 1587846835036
4, 131.87, -258.21, 119.96, 21.33, 0.000, 0.000, 0.000, 15:33:55.036, 1587846835036
5, 139.04, -247.15, 122.43, 14.59, 0.000, 0.000, 0.000, 15:33:55.038, 1587846835038
6, 135.18, -251.83, 112.69, 15.74, 0.000, 0.000, 0.000, 15:33:55.038, 1587846835038
7, 137.68, -250.86, 114.23, 20.12, 0.000, 0.000, 0.000, 15:33:55.048, 1587846835048
8, 130.95, -263.34, 117.07, 11.64, 0.000, 0.000, 0.000, 15:33:55.048, 1587846835048
9, 136.40, -260.69, 107.02, 10.49, 0.000, 0.000, 0.000, 15:33:55.064, 1587846835064
10, 127.08, -252.95, 110.80, 19.07, 0.000, 0.000, 0.000, 15:33:55.064, 1587846835064
11, 118.57, -257.55, 108.33, 12.61, 0.000, 0.000, 0.000, 15:33:55.068, 1587846835068
12, 101.48, -266.21, 115.15, 11.16, 0.000, 0.000, 0.000, 15:33:55.068, 1587846835068
13, 137.48, -260.35, 109.51, 19.55, 0.000, 0.000, 0.000, 15:33:55.078, 1587846835078
14, 149.53, -243.66, 125.29, 20.04, 0.000, 0.000, 0.000, 15:33:55.078, 1587846835078
15, 141.29, -255.11, 109.64, 14.62, 0.000, 0.000, 0.000, 15:33:55.096, 1587846835096
16, 106.25, -272.91, 99.24, 13.05, 0.000, 0.000, 0.000, 15:33:55.096, 1587846835096
17, 132.83, -258.69, 105.89, 22.06, 0.000, 0.000, 0.000, 15:33:55.100, 1587846835100
18, 142.97, -245.15, 128.21, 13.57, 0.000, 0.000, 0.000, 15:33:55.100, 1587846835100
19, 134.10, -256.86, 102.06, 9.04, 0.000, 0.000, 0.000, 15:33:55.109, 1587846835109
20, 118.49, -266.66, 105.24, 17.36, 0.000, 0.000, 0.000, 15:33:55.109, 1587846835109
21, 134.58, -261.00, 111.53, 17.86, 0.000, 0.000, 0.000, 15:33:55.124, 1587846835124
22, 136.26, -250.08, 109.02, 11.01, 0.000, 0.000, 0.000, 15:33:55.124, 1587846835124
23, 123.94, -265.73, 92.32, 18.05, 0.000, 0.000, 0.000, 15:33:55.140, 1587846835140
24, 132.20, -250.74, 117.63, 19.52, 0.000, 0.000, 0.000, 15:33:55.140, 1587846835140
25, 142.81, -243.41, 116.01, 9.35, 0.000, 0.000, 0.000, 15:33:55.145, 1587846835145
26, 115.08, -259.87, 106.44, 12.75, 0.000, 0.000, 0.000, 15:33:55.145, 1587846835145
27, 124.79, -260.31, 109.25, 24.54, 0.000, 0.000, 0.000, 15:33:55.154, 1587846835154
28, 134.86, -258.11, 108.63, 11.66, 0.000, 0.000, 0.000, 15:33:55.154, 1587846835154
29, 134.99, -262.13, 92.25, 10.24, 0.000, 0.000, 0.000, 15:33:55.155, 1587846835155
30, 129.53, -260.21, 106.60, 18.08, 0.000, 0.000, 0.000, 15:33:55.155, 1587846835155
31, 132.54, -238.12, 122.06, 23.57, 0.000, 0.000, 0.000, 15:33:55.171, 1587846835171
32, 132.73, -255.79, 98.22, 13.93, 0.000, 0.000, 0.000, 15:33:55.171, 1587846835171
33, 126.41, -260.74, 103.04, 17.38, 0.000, 0.000, 0.000, 15:33:55.184, 1587846835184
34, 138.16, -243.32, 113.58, 13.72, 0.000, 0.000, 0.000, 15:33:55.184, 1587846835184
35, 128.56, -249.52, 110.65, 8.74, 0.000, 0.000, 0.000, 15:33:55.187, 1587846835187
36, 123.43, -273.01, 93.16, 13.71, 0.000, 0.000, 0.000, 15:33:55.187, 1587846835187
37, 133.27, -257.06, 111.00, 20.97, 0.000, 0.000, 0.000, 15:33:55.215, 1587846835215
38, 136.88, -257.31, 120.36, 16.03, 0.000, 0.000, 0.000, 15:33:55.215, 1587846835215
39, 128.98, -252.59, 108.92, 9.39, 0.000, 0.000, 0.000, 15:33:55.216, 1587846835216
40, 121.53, -260.03, 92.47, 16.76, 0.000, 0.000, 0.000, 15:33:55.216, 1587846835216
41, 127.25, -246.25, 124.59, 18.02, 0.000, 0.000, 0.000, 15:33:55.217, 1587846835217
42, 137.23, -259.07, 111.47, 10.49, 0.000, 0.000, 0.000, 15:33:55.217, 1587846835217
43, 128.41, -259.19, 102.14, 12.98, 0.000, 0.000, 0.000, 15:33:55.228, 1587846835228
44, 134.71, -260.66, 105.04, 21.78, 0.000, 0.000, 0.000, 15:33:55.228, 1587846835228
45, 131.09, -256.81, 115.38, 14.84, 0.000, 0.000, 0.000, 15:33:55.244, 1587846835244
46, 114.68, -250.88, 106.82, 16.15, 0.000, 0.000, 0.000, 15:33:55.244, 1587846835244
47, 112.42, -266.37, 109.78, 20.57, 0.000, 0.000, 0.000, 15:33:55.245, 1587846835245
48, 120.02, -264.41, 111.34, 13.54, 0.000, 0.000, 0.000, 15:33:55.245, 1587846835245
49, 129.64, -254.18, 109.58, 15.98, 0.000, 0.000, 0.000, 15:33:55.258, 1587846835258
50, 129.94, -240.55, 107.64, 19.46, 0.000, 0.000, 0.000, 15:33:55.258, 1587846835258
51, 139.87, -250.34, 114.12, 18.88, 0.000, 0.000, 0.000, 15:33:55.277, 1587846835277
52, 105.99, -260.21, 101.98, 8.64, 0.000, 0.000, 0.000, 15:33:55.277, 1587846835277
53, 120.54, -262.61, 105.03, 21.74, 0.000, 0.000, 0.000, 15:33:55.277, 1587846835277
54, 129.19, -249.94, 111.69, 21.18, 0.000, 0.000, 0.000, 15:33:55.277, 1587846835277
55, 128.86, -260.56, 106.02, 7.61, 0.000, 0.000, 0.000, 15:33:55.288, 1587846835288
56, 124.30, -279.90, 99.19, 13.36, 0.000, 0.000, 0.000, 15:33:55.288, 1587846835288
57, 126.65, -268.66, 113.83, 18.58, 0.000, 0.000, 0.000, 15:33:55.308, 1587846835308
58, 128.16, -240.97, 124.24, 18.08, 0.000, 0.000, 0.000, 15:33:55.308, 1587846835308
59, 109.58, -259.71, 102.98, 11.79, 0.000, 0.000, 0.000, 15:33:55.309, 1587846835309
60, 93.82, -278.75, 104.45, 18.75, 0.000, 0.000, 0.000, 15:33:55.309, 1587846835309
61, 142.01, -237.46, 130.95, 19.47, 0.000, 0.000, 0.000, 15:33:55.318, 1587846835318
62, 142.23, -249.36, 105.91, 14.12, 0.000, 0.000, 0.000, 15:33:55.318, 1587846835318
63, 123.75, -265.30, 93.94, 20.58, 0.000, 0.000, 0.000, 15:33:55.333, 1587846835333
64, 127.77, -260.58, 117.25, 18.73, 0.000, 0.000, 0.000, 15:33:55.333, 1587846835333
65, 129.28, -258.19, 114.74, 9.36, 0.000, 0.000, 0.000, 15:33:55.334, 1587846835334
66, 117.95, -255.00, 108.77, 16.27, 0.000, 0.000, 0.000, 15:33:55.334, 1587846835334
67, 135.67, -241.79, 120.91, 23.14, 0.000, 0.000, 0.000, 15:33:55.364, 1587846835364
68, 129.44, -255.86, 111.80, 14.57, 0.000, 0.000, 0.000, 15:33:55.364, 1587846835364
69, 125.43, -278.10, 92.96, 9.87, 0.000, 0.000, 0.000, 15:33:55.367, 1587846835367
70, 138.02, -269.73, 109.75, 20.09, 0.000, 0.000, 0.000, 15:33:55.367, 1587846835367
71, 139.21, -247.14, 118.88, 18.44, 0.000, 0.000, 0.000, 15:33:55.367, 1587846835367
72, 131.53, -257.66, 117.41, 13.84, 0.000, 0.000, 0.000, 15:33:55.367, 1587846835367
73, 131.82, -259.18, 114.31, 19.55, 0.000, 0.000, 0.000, 15:33:55.378, 1587846835378
74, 159.81, -247.55, 130.03, 17.74, 0.000, 0.000, 0.000, 15:33:55.378, 1587846835378
75, 158.56, -243.93, 144.09, 10.54, 0.000, 0.000, 0.000, 15:33:55.393, 1587846835393
76, 154.49, -237.43, 132.57, 16.77, 0.000, 0.000, 0.000, 15:33:55.393, 1587846835393
77, 164.91, -211.54, 146.35, 20.13, 0.000, 0.000, 0.000, 15:33:55.394, 1587846835394
78, 195.53, -194.43, 163.86, 14.60, 0.000, 0.000, 0.000, 15:33:55.394, 1587846835394
79, 192.29, -193.32, 142.24, 12.06, 0.000, 0.000, 0.000, 15:33:55.408, 1587846835408
80, 197.72, -200.70, 142.79, 21.86, 0.000, 0.000, 0.000, 15:33:55.408, 1587846835408
81, 196.50, -181.74, 139.25, 17.12, 0.000, 0.000, 0.000, 15:33:55.423, 1587846835423
82, 176.89, -180.95, 129.74, 12.80, 0.000, 0.000, 0.000, 15:33:55.423, 1587846835423
83, 193.64, -199.65, 118.09, 17.09, 0.000, 0.000, 0.000, 15:33:55.424, 1587846835424
84, 220.11, -151.02, 162.62, 22.74, 0.000, 0.000, 0.000, 15:33:55.424, 1587846835424
85, 210.20, -165.25, 117.93, 12.81, 0.000, 0.000, 0.000, 15:33:55.454, 1587846835454
86, 190.57, -225.12, 99.88, 13.47, 0.000, 0.000, 0.000, 15:33:55.454, 1587846835454
87, 188.01, -187.28, 112.02, 22.97, 0.000, 0.000, 0.000, 15:33:55.455, 1587846835455
88, 179.98, -171.21, 134.88, 15.95, 0.000, 0.000, 0.000, 15:33:55.455, 1587846835455
89, 171.21, -197.19, 106.14, 10.73, 0.000, 0.000, 0.000, 15:33:55.456, 1587846835456
90, 185.30, -204.73, 125.11, 22.72, 0.000, 0.000, 0.000, 15:33:55.456, 1587846835456
91, 173.56, -196.10, 111.13, 18.48, 0.000, 0.000, 0.000, 15:33:55.469, 1587846835469
92, 166.59, -191.91, 126.34, 12.27, 0.000, 0.000, 0.000, 15:33:55.469, 1587846835469
93, 150.99, -254.05, 72.76, 19.47, 0.000, 0.000, 0.000, 15:33:55.484, 1587846835484
94, 175.86, -196.60, 131.88, 20.05, 0.000, 0.000, 0.000, 15:33:55.484, 1587846835484
95, 146.48, -209.92, 110.36, 11.35, 0.000, 0.000, 0.000, 15:33:55.485, 1587846835485
96, 130.98, -226.45, 105.02, 15.22, 0.000, 0.000, 0.000, 15:33:55.485, 1587846835485
97, 137.79, -226.07, 122.58, 22.54, 0.000, 0.000, 0.000, 15:33:55.498, 1587846835498
98, 160.40, -245.13, 108.37, 17.33, 0.000, 0.000, 0.000, 15:33:55.498, 1587846835498
99, 128.14, -251.83, 88.70, 10.57, 0.000, 0.000, 0.000, 15:33:55.535, 1587846835535
100, 136.15, -230.16, 93.29, 21.51, 0.000, 0.000, 0.000, 15:33:55.535, 1587846835535
101, 145.50, -228.52, 107.59, 17.26, 0.000, 0.000, 0.000, 15:33:55.536, 1587846835536
102, 118.39, -255.37, 77.38, 10.26, 0.000, 0.000, 0.000, 15:33:55.536, 1587846835536
103, 149.95, -262.76, 85.22, 17.32, 0.000, 0.000, 0.000, 15:33:55.537, 1587846835537
104, 151.98, -239.19, 113.73, 18.13, 0.000, 0.000, 0.000, 15:33:55.537, 1587846835537
105, 131.47, -265.66, 94.19, 11.43, 0.000, 0.000, 0.000, 15:33:55.538, 1587846835538
106, 119.19, -272.41, 86.66, 9.22, 0.000, 0.000, 0.000, 15:33:55.538, 1587846835538
107, 122.58, -267.66, 87.74, 21.09, 0.000, 0.000, 0.000, 15:33:55.543, 1587846835543
108, 121.29, -277.28, 109.84, 10.15, 0.000, 0.000, 0.000, 15:33:55.543, 1587846835543
109, 119.29, -261.17, 99.27, 9.99, 0.000, 0.000, 0.000, 15:33:55.558, 1587846835558
110, 115.76, -274.66, 88.51, 22.08, 0.000, 0.000, 0.000, 15:33:55.558, 1587846835558
111, 118.04, -263.39, 119.60, 17.47, 0.000, 0.000, 0.000, 15:33:55.573, 1587846835573
112, 116.42, -310.71, 85.01, 11.47, 0.000, 0.000, 0.000, 15:33:55.573, 1587846835573
113, 116.44, -277.99, 108.81, 19.86, 0.000, 0.000, 0.000, 15:33:55.574, 1587846835574
114, 126.88, -251.61, 119.60, 21.37, 0.000, 0.000, 0.000, 15:33:55.574, 1587846835574
115, 113.92, -272.43, 86.73, 8.40, 0.000, 0.000, 0.000, 15:33:55.588, 1587846835588
116, 108.58, -280.66, 92.82, 15.44, 0.000, 0.000, 0.000, 15:33:55.588, 1587846835588
117, 109.98, -275.43, 97.42, 19.28, 0.000, 0.000, 0.000, 15:33:55.605, 1587846835605
118, 133.82, -276.46, 97.59, 11.98, 0.000, 0.000, 0.000, 15:33:55.605, 1587846835605
119, 106.78, -283.55, 113.40, 10.43, 0.000, 0.000, 0.000, 15:33:55.606, 1587846835606
120, 106.01, -281.88, 112.54, 20.08, 0.000, 0.000, 0.000, 15:33:55.606, 1587846835606
121, 133.46, -261.76, 117.04, 15.10, 0.000, 0.000, 0.000, 15:33:55.618, 1587846835618
122, 119.40, -278.24, 105.37, 8.82, 0.000, 0.000, 0.000, 15:33:55.618, 1587846835618
123, 114.52, -295.37, 91.51, 18.12, 0.000, 0.000, 0.000, 15:33:55.634, 1587846835634
124, 118.44, -292.39, 98.94, 23.00, 0.000, 0.000, 0.000, 15:33:55.634, 1587846835634
125, 102.89, -276.35, 113.25, 6.60, 0.000, 0.000, 0.000, 15:33:55.636, 1587846835636
126, 105.79, -275.55, 109.14, 12.64, 0.000, 0.000, 0.000, 15:33:55.636, 1587846835636
127, 123.77, -272.65, 105.92, 21.44, 0.000, 0.000, 0.000, 15:33:55.648, 1587846835648
128, 131.52, -266.36, 120.62, 15.68, 0.000, 0.000, 0.000, 15:33:55.648, 1587846835648
129, 111.80, -285.78, 97.00, 11.94, 0.000, 0.000, 0.000, 15:33:55.664, 1587846835664
130, 131.06, -296.62, 120.71, 23.01, 0.000, 0.000, 0.000, 15:33:55.664, 1587846835664
131, 143.07, -263.17, 132.00, 18.57, 0.000, 0.000, 0.000, 15:33:55.666, 1587846835666
132, 124.38, -268.93, 117.03, 11.31, 0.000, 0.000, 0.000, 15:33:55.666, 1587846835666
133, 138.14, -271.02, 129.91, 13.22, 0.000, 0.000, 0.000, 15:33:55.678, 1587846835678
134, 166.82, -234.22, 143.85, 22.24, 0.000, 0.000, 0.000, 15:33:55.678, 1587846835678
135, 174.04, -229.74, 148.02, 13.08, 0.000, 0.000, 0.000, 15:33:55.694, 1587846835694
136, 172.52, -231.71, 148.11, 13.38, 0.000, 0.000, 0.000, 15:33:55.694, 1587846835694
137, 193.21, -200.72, 141.08, 17.28, 0.000, 0.000, 0.000, 15:33:55.695, 1587846835695
138, 202.46, -191.45, 138.52, 14.55, 0.000, 0.000, 0.000, 15:33:55.695, 1587846835695
139, 200.22, -206.89, 129.67, 14.90, 0.000, 0.000, 0.000, 15:33:55.708, 1587846835708
140, 205.39, -181.11, 135.53, 22.88, 0.000, 0.000, 0.000, 15:33:55.708, 1587846835708
141, 207.81, -168.75, 136.84, 17.19, 0.000, 0.000, 0.000, 15:33:55.724, 1587846835724
142, 194.96, -194.54, 113.36, 12.15, 0.000, 0.000, 0.000, 15:33:55.724, 1587846835724
143, 192.20, -214.05, 95.02, 19.17, 0.000, 0.000, 0.000, 15:33:55.725, 1587846835725
144, 198.52, -197.78, 126.95, 19.57, 0.000, 0.000, 0.000, 15:33:55.725, 1587846835725
145, 196.12, -173.57, 138.24, 12.96, 0.000, 0.000, 0.000, 15:33:55.738, 1587846835738
146, 173.77, -206.82, 105.64, 17.53, 0.000, 0.000, 0.000, 15:33:55.738, 1587846835738
147, 179.37, -206.20, 113.21, 20.61, 0.000, 0.000, 0.000, 15:33:55.754, 1587846835754
148, 193.36, -203.17, 132.09, 20.64, 0.000, 0.000, 0.000, 15:33:55.754, 1587846835754
149, 148.35, -239.03, 78.87, 14.70, 0.000, 0.000, 0.000, 15:33:55.754, 1587846835754
150, 151.86, -239.34, 84.74, 15.22, 0.000, 0.000, 0.000, 15:33:55.754, 1587846835754
151, 187.97, -178.40, 132.17, 17.88, 0.000, 0.000, 0.000, 15:33:55.769, 1587846835769
152, 150.62, -219.51, 109.27, 13.63, 0.000, 0.000, 0.000, 15:33:55.769, 1587846835769
153, 156.04, -233.19, 105.40, 20.26, 0.000, 0.000, 0.000, 15:33:55.784, 1587846835784
154, 160.19, -226.35, 112.19, 26.02, 0.000, 0.000, 0.000, 15:33:55.784, 1587846835784
155, 141.21, -255.00, 90.98, 15.40, 0.000, 0.000, 0.000, 15:33:55.785, 1587846835785
156, 129.59, -267.97, 79.88, 13.79, 0.000, 0.000, 0.000, 15:33:55.785, 1587846835785
157, 133.28, -219.51, 117.59, 23.47, 0.000, 0.000, 0.000, 15:33:55.798, 1587846835798
158, 137.17, -227.92, 103.81, 19.61, 0.000, 0.000, 0.000, 15:33:55.798, 1587846835798
159, 124.89, -260.20, 92.77, 13.43, 0.000, 0.000, 0.000, 15:33:55.815, 1587846835815
160, 134.13, -252.45, 90.62, 20.85, 0.000, 0.000, 0.000, 15:33:55.815, 1587846835815
161, 121.22, -277.92, 68.40, 17.74, 0.000, 0.000, 0.000, 15:33:55.816, 1587846835816
162, 140.63, -279.64, 90.19, 10.13, 0.000, 0.000, 0.000, 15:33:55.816, 1587846835816
163, 140.53, -239.03, 103.32, 19.98, 0.000, 0.000, 0.000, 15:33:55.828, 1587846835828
164, 129.56, -252.61, 99.94, 21.62, 0.000, 0.000, 0.000, 15:33:55.828, 1587846835828
165, 115.36, -268.53, 89.84, 14.29, 0.000, 0.000, 0.000, 15:33:55.844, 1587846835844
166, 113.00, -284.09, 80.40, 10.19, 0.000, 0.000, 0.000, 15:33:55.844, 1587846835844
167, 113.57, -285.76, 82.23, 19.93, 0.000, 0.000, 0.000, 15:33:55.844, 1587846835844
168, 121.99, -301.32, 91.07, 14.40, 0.000, 0.000, 0.000, 15:33:55.844, 1587846835844
169, 113.13, -281.40, 90.59, 7.31, 0.000, 0.000, 0.000, 15:33:55.858, 1587846835858
170, 118.09, -273.59, 81.38, 18.55, 0.000, 0.000, 0.000, 15:33:55.858, 1587846835858
171, 128.61, -270.05, 99.16, 20.58, 0.000, 0.000, 0.000, 15:33:55.874, 1587846835874
172, 123.22, -281.91, 90.57, 9.55, 0.000, 0.000, 0.000, 15:33:55.874, 1587846835874
173, 118.37, -285.00, 93.21, 16.54, 0.000, 0.000, 0.000, 15:33:55.877, 1587846835877
174, 117.97, -290.88, 98.97, 20.97, 0.000, 0.000, 0.000, 15:33:55.877, 1587846835877
175, 93.33, -318.58, 82.03, 12.40, 0.000, 0.000, 0.000, 15:33:55.888, 1587846835888
176, 104.95, -298.99, 96.49, 13.02, 0.000, 0.000, 0.000, 15:33:55.888, 1587846835888
177, 123.30, -258.63, 104.04, 20.15, 0.000, 0.000, 0.000, 15:33:55.905, 1587846835905
178, 127.29, -271.77, 99.28, 15.25, 0.000, 0.000, 0.000, 15:33:55.905, 1587846835905
179, 104.05, -291.92, 86.77, 12.51, 0.000, 0.000, 0.000, 15:33:55.906, 1587846835906
180, 108.55, -298.93, 90.59, 16.46, 0.000, 0.000, 0.000, 15:33:55.906, 1587846835906
181, 114.49, -283.44, 101.95, 18.25, 0.000, 0.000, 0.000, 15:33:55.918, 1587846835918
182, 101.37, -292.73, 96.45, 8.69, 0.000, 0.000, 0.000, 15:33:55.918, 1587846835918
183, 104.66, -296.71, 94.90, 16.18, 0.000, 0.000, 0.000, 15:33:55.934, 1587846835934
184, 122.81, -283.00, 101.38, 21.23, 0.000, 0.000, 0.000, 15:33:55.934, 1587846835934
185, 112.04, -285.26, 103.94, 14.57, 0.000, 0.000, 0.000, 15:33:55.936, 1587846835936
186, 105.23, -292.09, 82.77, 13.35, 0.000, 0.000, 0.000, 15:33:55.936, 1587846835936
187, 122.78, -282.36, 106.85, 21.68, 0.000, 0.000, 0.000, 15:33:55.949, 1587846835949
188, 127.35, -275.24, 124.66, 14.42, 0.000, 0.000, 0.000, 15:33:55.949, 1587846835949
189, 115.79, -284.05, 103.05, 11.13, 0.000, 0.000, 0.000, 15:33:55.964, 1587846835964
190, 126.79, -290.51, 104.38, 19.83, 0.000, 0.000, 0.000, 15:33:55.964, 1587846835964
191, 127.50, -278.30, 118.70, 17.44, 0.000, 0.000, 0.000, 15:33:55.964, 1587846835964
192, 125.14, -270.94, 111.09, 3.37, 0.000, 0.000, 0.000, 15:33:55.964, 1587846835964
193, 133.46, -272.76, 114.03, 17.58, 0.000, 0.000, 0.000, 15:33:55.978, 1587846835978
194, 147.24, -257.05, 129.42, 20.01, 0.000, 0.000, 0.000, 15:33:55.978, 1587846835978
195, 160.95, -234.58, 134.32, 11.85, 0.000, 0.000, 0.000, 15:33:55.993, 1587846835993
196, 154.71, -255.37, 129.87, 17.82, 0.000, 0.000, 0.000, 15:33:55.993, 1587846835993
197, 168.96, -221.06, 137.72, 19.95, 0.000, 0.000, 0.000, 15:33:56.009, 1587846836009
198, 180.93, -204.64, 135.12, 13.56, 0.000, 0.000, 0.000, 15:33:56.009, 1587846836009
199, 180.29, -208.47, 118.74, 11.95, 0.000, 0.000, 0.000, 15:33:56.010, 1587846836010
200, 150.96, -212.54, 129.16, 22.68, 0.000, 0.000, 0.000, 15:33:56.010, 1587846836010
0, 178.52, -206.18, 152.39, 21.43, 0.000, 0.000, 0.000, 15:33:56.011, 1587846836011
1, 195.70, -205.57, 139.00, 9.12, 0.000, 0.000, 0.000, 15:33:56.023, 1587846836023
2, 163.51, -230.53, 108.60, 21.86, 0.000, 0.000, 0.000, 15:33:56.023, 1587846836023
3, 167.19, -198.50, 122.52, 19.82, 0.000, 0.000, 0.000, 15:33:56.039, 1587846836039
4, 153.53, -209.99, 125.11, 14.90, 0.000, 0.000, 0.000, 15:33:56.039, 1587846836039
5, 145.69, -233.02, 96.70, 12.66, 0.000, 0.000, 0.000, 15:33:56.040, 1587846836040
6, 159.25, -225.90, 107.68, 19.63, 0.000, 0.000, 0.000, 15:33:56.040, 1587846836040
7, 145.14, -234.99, 111.95, 14.68, 0.000, 0.000, 0.000, 15:33:56.053, 1587846836053
8, 134.48, -236.02, 105.97, 11.20, 0.000, 0.000, 0.000, 15:33:56.053, 1587846836053
9, 142.92, -237.79, 96.29, 21.17, 0.000, 0.000, 0.000, 15:33:56.069, 1587846836069
10, 130.43, -234.88, 97.95, 16.71, 0.000, 0.000, 0.000, 15:33:56.069, 1587846836069
11, 123.62, -237.99, 96.87, 14.67, 0.000, 0.000, 0.000, 15:33:56.069, 1587846836069
12, 142.39, -259.98, 82.98, 16.72, 0.000, 0.000, 0.000, 15:33:56.069, 1587846836069
13, 149.60, -229.02, 115.35, 18.29, 0.000, 0.000, 0.000, 15:33:56.083, 1587846836083
14, 139.41, -242.43, 92.60, 12.73, 0.000, 0.000, 0.000, 15:33:56.083, 1587846836083
15, 113.66, -275.19, 74.93, 16.98, 0.000, 0.000, 0.000, 15:33:56.099, 1587846836099
16, 138.98, -251.88, 97.09, 19.88, 0.000, 0.000, 0.000, 15:33:56.099, 1587846836099
17, 127.85, -250.59, 107.39, 15.89, 0.000, 0.000, 0.000, 15:33:56.100, 1587846836100
18, 107.55, -287.69, 83.24, 12.13, 0.000, 0.000, 0.000, 15:33:56.100, 1587846836100
19, 139.71, -278.77, 93.26, 24.52, 0.000, 0.000, 0.000, 15:33:56.112, 1587846836112
20, 140.71, -254.21, 96.02, 16.19, 0.000, 0.000, 0.000, 15:33:56.112, 1587846836112
21, 104.85, -285.83, 94.51, 9.44, 0.000, 0.000, 0.000, 15:33:56.128, 1587846836128
22, 118.85, -280.56, 90.18, 17.80, 0.000, 0.000, 0.000, 15:33:56.128, 1587846836128
23, 135.39, -262.19, 97.57, 20.40, 0.000, 0.000, 0.000, 15:33:56.129, 1587846836129
24, 114.53, -272.87, 96.32, 10.73, 0.000, 0.000, 0.000, 15:33:56.129, 1587846836129
25, 93.73, -292.68, 80.27, 13.99, 0.000, 0.000, 0.000, 15:33:56.144, 1587846836144
26, 122.15, -281.75, 101.61, 23.29, 0.000, 0.000, 0.000, 15:33:56.144, 1587846836144
27, 123.75, -283.30, 110.23, 15.05, 0.000, 0.000, 0.000, 15:33:56.159, 1587846836159
28, 92.18, -290.38, 99.67, 8.73, 0.000, 0.000, 0.000, 15:33:56.159, 1587846836159
29, 113.15, -282.01, 92.97, 21.35, 0.000, 0.000, 0.000, 15:33:56.160, 1587846836160
30, 126.49, -271.57, 101.20, 20.48, 0.000, 0.000, 0.000, 15:33:56.160, 1587846836160
31, 107.68, -281.19, 89.18, 12.59, 0.000, 0.000, 0.000, 15:33:56.173, 1587846836173
32, 112.13, -282.65, 92.56, 15.72, 0.000, 0.000, 0.000, 15:33:56.173, 1587846836173
33, 124.15, -284.37, 99.36, 20.81, 0.000, 0.000, 0.000, 15:33:56.188, 1587846836188
34, 115.88, -290.26, 94.25, 12.28, 0.000, 0.000, 0.000, 15:33:56.188, 1587846836188
35, 93.33, -305.39, 96.72, 14.99, 0.000, 0.000, 0.000, 15:33:56.189, 1587846836189
36, 96.59, -276.79, 114.06, 19.79, 0.000, 0.000, 0.000, 15:33:56.189, 1587846836189
37, 115.17, -272.85, 117.34, 13.07, 0.000, 0.000, 0.000, 15:33:56.203, 1587846836203
38, 112.65, -281.63, 100.69, 11.60, 0.000, 0.000, 0.000, 15:33:56.203, 1587846836203
39, 108.86, -291.18, 88.56, 17.43, 0.000, 0.000, 0.000, 15:33:56.218, 1587846836218
40, 122.04, -279.61, 97.16, 16.14, 0.000, 0.000, 0.000, 15:33:56.218, 1587846836218
41, 110.41, -292.28, 93.06, 11.52, 0.000, 0.000, 0.000, 15:33:56.219, 1587846836219
42, 109.16, -287.33, 98.45, 15.82, 0.000, 0.000, 0.000, 15:33:56.219, 1587846836219
43, 111.90, -278.10, 110.03, 19.91, 0.000, 0.000, 0.000, 15:33:56.233, 1587846836233
44, 117.26, -289.52, 103.91, 10.53, 0.000, 0.000, 0.000, 15:33:56.233, 1587846836233
45, 107.01, -284.00, 103.10, 14.65, 0.000, 0.000, 0.000, 15:33:56.249, 1587846836249
46, 119.72, -283.02, 99.26, 21.18, 0.000, 0.000, 0.000, 15:33:56.249, 1587846836249
47, 128.79, -275.84, 109.15, 16.57, 0.000, 0.000, 0.000, 15:33:56.250, 1587846836250
48, 118.02, -284.50, 96.96, 12.74, 0.000, 0.000, 0.000, 15:33:56.250, 1587846836250
49, 111.46, -287.97, 90.54, 15.24, 0.000, 0.000, 0.000, 15:33:56.263, 1587846836263
50, 129.79, -271.42, 119.44, 13.36, 0.000, 0.000, 0.000, 15:33:56.263, 1587846836263
51, 119.48, -288.91, 99.71, 15.24, 0.000, 0.000, 0.000, 15:33:56.284, 1587846836284
52, 112.05, -285.45, 88.65, 18.36, 0.000, 0.000, 0.000, 15:33:56.284, 1587846836284
53, 117.93, -264.96, 105.11, 20.26, 0.000, 0.000, 0.000, 15:33:56.286, 1587846836286
54, 110.05, -268.36, 115.34, 13.41, 0.000, 0.000, 0.000, 15:33:56.286, 1587846836286
55, 94.50, -285.81, 92.08, 12.96, 0.000, 0.000, 0.000, 15:33:56.293, 1587846836293
56, 110.49, -271.87, 97.35, 18.59, 0.000, 0.000, 0.000, 15:33:56.293, 1587846836293
57, 125.76, -266.34, 115.56, 13.63, 0.000, 0.000, 0.000, 15:33:56.309, 1587846836309
58, 113.41, -278.75, 104.11, 10.42, 0.000, 0.000, 0.000, 15:33:56.309, 1587846836309
59, 115.77, -286.56, 94.91, 23.38, 0.000, 0.000, 0.000, 15:33:56.310, 1587846836310
60, 109.02, -273.06, 108.71, 16.18, 0.000, 0.000, 0.000, 15:33:56.310, 1587846836310
61, 113.12, -265.80, 106.69, 6.69, 0.000, 0.000, 0.000, 15:33:56.323, 1587846836323
62, 109.31, -267.98, 90.88, 12.52, 0.000, 0.000, 0.000, 15:33:56.323, 1587846836323
63, 116.61, -260.92, 115.56, 23.45, 0.000, 0.000, 0.000, 15:33:56.338, 1587846836338
64, 116.37, -276.84, 111.19, 15.41, 0.000, 0.000, 0.000, 15:33:56.338, 1587846836338
65, 102.89, -277.70, 97.25, 16.14, 0.000, 0.000, 0.000, 15:33:56.339, 1587846836339
66, 111.67, -282.32, 104.85, 23.78, 0.000, 0.000, 0.000, 15:33:56.339, 1587846836339
67, 115.33, -280.78, 101.81, 18.05, 0.000, 0.000, 0.000, 15:33:56.353, 1587846836353
68, 110.40, -280.34, 98.29, 14.66, 0.000, 0.000, 0.000, 15:33:56.353, 1587846836353
69, 110.40, -276.69, 100.32, 18.52, 0.000, 0.000, 0.000, 15:33:56.369, 1587846836369
70, 118.95, -267.03, 110.41, 16.99, 0.000, 0.000, 0.000, 15:33:56.369, 1587846836369
71, 114.59, -268.92, 108.87, 11.32, 0.000, 0.000, 0.000, 15:33:56.369, 1587846836369
72, 111.09, -287.07, 92.51, 20.59, 0.000, 0.000, 0.000, 15:33:56.369, 1587846836369
73, 115.75, -274.76, 116.18, 18.94, 0.000, 0.000, 0.000, 15:33:56.383, 1587846836383
74, 105.53, -266.03, 107.08, 11.28, 0.000, 0.000, 0.000, 15:33:56.383, 1587846836383
75, 103.80, -283.95, 95.40, 12.33, 0.000, 0.000, 0.000, 15:33:56.399, 1587846836399
76, 118.58, -266.89, 105.45, 18.39, 0.000, 0.000, 0.000, 15:33:56.399, 1587846836399
77, 126.76, -259.92, 108.57, 16.13, 0.000, 0.000, 0.000, 15:33:56.400, 1587846836400
78, 117.99, -281.03, 96.53, 13.66, 0.000, 0.000, 0.000, 15:33:56.400, 1587846836400
79, 115.67, -271.20, 103.23, 18.95, 0.000, 0.000, 0.000, 15:33:56.413, 1587846836413
80, 137.62, -261.06, 119.87, 23.42, 0.000, 0.000, 0.000, 15:33:56.413, 1587846836413
81, 123.04, -275.57, 106.17, 13.39, 0.000, 0.000, 0.000, 15:33:56.429, 1587846836429
82, 112.86, -275.92, 103.62, 18.22, 0.000, 0.000, 0.000, 15:33:56.429, 1587846836429
83, 124.39, -264.58, 109.20, 18.07, 0.000, 0.000, 0.000, 15:33:56.429, 1587846836429
84, 119.18, -276.27, 105.01, 14.07, 0.000, 0.000, 0.000, 15:33:56.429, 1587846836429
85, 100.45, -265.18, 97.81, 19.09, 0.000, 0.000, 0.000, 15:33:56.443, 1587846836443
86, 124.67, -256.92, 109.62, 20.32, 0.000, 0.000, 0.000, 15:33:56.443, 1587846836443
87, 130.97, -262.19, 121.00, 15.41, 0.000, 0.000, 0.000, 15:33:56.459, 1587846836459
88, 105.15, -285.44, 102.99, 6.48, 0.000, 0.000, 0.000, 15:33:56.459, 1587846836459
89, 121.82, -271.93, 97.52, 22.00, 0.000, 0.000, 0.000, 15:33:56.460, 1587846836460
90, 139.31, -272.35, 108.88, 18.52, 0.000, 0.000, 0.000, 15:33:56.460, 1587846836460
91, 124.82, -273.37, 106.15, 12.59, 0.000, 0.000, 0.000, 15:33:56.473, 1587846836473
92, 127.40, -273.16, 106.71, 18.82, 0.000, 0.000, 0.000, 15:33:56.473, 1587846836473
93, 136.96, -261.20, 106.85, 21.45, 0.000, 0.000, 0.000, 15:33:56.489, 1587846836489
94, 127.84, -267.14, 98.12, 13.85, 0.000, 0.000, 0.000, 15:33:56.489, 1587846836489
95, 113.32, -275.72, 100.29, 12.05, 0.000, 0.000, 0.000, 15:33:56.491, 1587846836491
96, 131.95, -259.81, 110.41, 23.86, 0.000, 0.000, 0.000, 15:33:56.491, 1587846836491
97, 138.44, -259.15, 113.42, 13.37, 0.000, 0.000, 0.000, 15:33:56.502, 1587846836502
98, 121.20, -280.34, 98.14, 11.34, 0.000, 0.000, 0.000, 15:33:56.502, 1587846836502
99, 114.21, -251.71, 105.49, 17.68, 0.000, 0.000, 0.000, 15:33:56.519, 1587846836519
100, 131.10, -253.43, 106.25, 16.91, 0.000, 0.000, 0.000, 15:33:56.519, 1587846836519
101, 129.86, -266.63, 97.72, 11.10, 0.000, 0.000, 0.000, 15:33:56.521, 1587846836521
102, 125.86, -266.71, 94.43, 17.78, 0.000, 0.000, 0.000, 15:33:56.521, 1587846836521
103, 130.47, -258.81, 110.57, 17.55, 0.000, 0.000, 0.000, 15:33:56.533, 1587846836533
104, 118.76, -261.94, 113.64, 12.62, 0.000, 0.000, 0.000, 15:33:56.533, 1587846836533
105, 108.64, -273.82, 102.66, 13.17, 0.000, 0.000, 0.000, 15:33:56.565, 1587846836565
106, 125.65, -280.21, 98.90, 22.69, 0.000, 0.000, 0.000, 15:33:56.565, 1587846836565
107, 142.66, -251.97, 113.09, 15.60, 0.000, 0.000, 0.000, 15:33:56.566, 1587846836566
108, 129.52, -259.97, 107.35, 9.11, 0.000, 0.000, 0.000, 15:33:56.566, 1587846836566
109, 126.06, -271.11, 95.59, 16.77, 0.000, 0.000, 0.000, 15:33:56.567, 1587846836567
110, 137.00, -258.08, 114.50, 19.39, 0.000, 0.000, 0.000, 15:33:56.567, 1587846836567
111, 121.79, -272.14, 106.63, 8.94, 0.000, 0.000, 0.000, 15:33:56.568, 1587846836568
112, 109.10, -270.17, 102.63, 15.55, 0.000, 0.000, 0.000, 15:33:56.568, 1587846836568
113, 132.50, -267.79, 116.82, 21.59, 0.000, 0.000, 0.000, 15:33:56.578, 1587846836578
114, 122.98, -264.03, 111.03, 8.31, 0.000, 0.000, 0.000, 15:33:56.578, 1587846836578
115, 113.30, -265.66, 101.69, 18.85, 0.000, 0.000, 0.000, 15:33:56.593, 1587846836593
116, 126.51, -263.09, 106.78, 21.95, 0.000, 0.000, 0.000, 15:33:56.593, 1587846836593
117, 141.27, -254.60, 116.14, 12.72, 0.000, 0.000, 0.000, 15:33:56.609, 1587846836609
118, 123.52, -279.95, 104.44, 14.99, 0.000, 0.000, 0.000, 15:33:56.609, 1587846836609
119, 113.30, -269.70, 102.83, 18.38, 0.000, 0.000, 0.000, 15:33:56.611, 1587846836611
120, 134.27, -259.90, 113.50, 14.29, 0.000, 0.000, 0.000, 15:33:56.611, 1587846836611
121, 128.96, -257.08, 106.01, 9.27, 0.000, 0.000, 0.000, 15:33:56.623, 1587846836623
122, 124.98, -252.62, 107.73, 20.66, 0.000, 0.000, 0.000, 15:33:56.623, 1587846836623
123, 125.96, -249.49, 111.17, 17.08, 0.000, 0.000, 0.000, 15:33:56.639, 1587846836639
124, 134.26, -260.28, 103.02, 10.25, 0.000, 0.000, 0.000, 15:33:56.639, 1587846836639
125, 120.00, -274.38, 96.50, 13.16, 0.000, 0.000, 0.000, 15:33:56.640, 1587846836640
126, 131.06, -252.66, 111.38, 18.48, 0.000, 0.000, 0.000, 15:33:56.640, 1587846836640
127, 137.49, -264.22, 106.52, 10.11, 0.000, 0.000, 0.000, 15:33:56.653, 1587846836653
128, 128.77, -276.78, 99.97, 11.16, 0.000, 0.000, 0.000, 15:33:56.653, 1587846836653
129, 124.88, -261.71, 105.66, 21.36, 0.000, 0.000, 0.000, 15:33:56.669, 1587846836669
130, 140.06, -257.41, 105.99, 15.54, 0.000, 0.000, 0.000, 15:33:56.669, 1587846836669
131, 125.83, -261.48, 107.08, 13.13, 0.000, 0.000, 0.000, 15:33:56.670, 1587846836670
132, 119.47, -260.89, 105.85, 15.01, 0.000, 0.000, 0.000, 15:33:56.670, 1587846836670
133, 143.65, -250.30, 118.77, 19.49, 0.000, 0.000, 0.000, 15:33:56.683, 1587846836683
134, 132.80, -253.75, 108.14, 12.83, 0.000, 0.000, 0.000, 15:33:56.683, 1587846836683
135, 119.38, -266.11, 97.12, 12.71, 0.000, 0.000, 0.000, 15:33:56.699, 1587846836699
136, 137.11, -258.60, 112.93, 16.19, 0.000, 0.000, 0.000, 15:33:56.699, 1587846836699
137, 140.03, -257.12, 105.19, 12.01, 0.000, 0.000, 0.000, 15:33:56.701, 1587846836701
138, 126.69, -271.94, 97.28, 12.35, 0.000, 0.000, 0.000, 15:33:56.701, 1587846836701
139, 123.45, -255.95, 95.61, 20.09, 0.000, 0.000, 0.000, 15:33:56.713, 1587846836713
140, 150.19, -251.32, 112.07, 13.74, 0.000, 0.000, 0.000, 15:33:56.713, 1587846836713
141, 140.10, -251.17, 113.35, 12.53, 0.000, 0.000, 0.000, 15:33:56.729, 1587846836729
142, 128.63, -260.95, 102.34, 21.10, 0.000, 0.000, 0.000, 15:33:56.729, 1587846836729
143, 135.65, -258.44, 107.70, 21.19, 0.000, 0.000, 0.000, 15:33:56.731, 1587846836731
144, 137.69, -272.63, 106.37, 12.14, 0.000, 0.000, 0.000, 15:33:56.731, 1587846836731
145, 118.31, -268.81, 97.04, 15.29, 0.000, 0.000, 0.000, 15:33:56.743, 1587846836743
146, 126.81, -246.80, 115.58, 24.89, 0.000, 0.000, 0.000, 15:33:56.743, 1587846836743
147, 143.47, -251.01, 108.20, 20.13, 0.000, 0.000, 0.000, 15:33:56.759, 1587846836759
148, 125.57, -258.35, 96.60, 9.94, 0.000, 0.000, 0.000, 15:33:56.759, 1587846836759
149, 136.80, -260.60, 99.46, 24.09, 0.000, 0.000, 0.000, 15:33:56.760, 1587846836760
150, 141.84, -256.04, 111.14, 21.36, 0.000, 0.000, 0.000, 15:33:56.760, 1587846836760
151, 127.76, -266.84, 99.43, 8.95, 0.000, 0.000, 0.000, 15:33:56.773, 1587846836773
152, 125.90, -280.67, 90.16, 17.30, 0.000, 0.000, 0.000, 15:33:56.773, 1587846836773
153, 142.04, -253.48, 117.73, 18.86, 0.000, 0.000, 0.000, 15:33:56.790, 1587846836790
154, 129.92, -253.26, 111.37, 15.56, 0.000, 0.000, 0.000, 15:33:56.790, 1587846836790
155, 115.69, -273.44, 90.48, 14.34, 0.000, 0.000, 0.000, 15:33:56.791, 1587846836791
156, 135.06, -254.04, 100.60, 21.32, 0.000, 0.000, 0.000, 15:33:56.791, 1587846836791
157, 139.39, -262.65, 110.75, 22.24, 0.000, 0.000, 0.000, 15:33:56.803, 1587846836803
158, 128.70, -277.39, 108.00, 8.75, 0.000, 0.000, 0.000, 15:33:56.803, 1587846836803
159, 135.48, -251.85, 106.08, 20.61, 0.000, 0.000, 0.000, 15:33:56.818, 1587846836818
160, 135.51, -249.81, 110.09, 15.66, 0.000, 0.000, 0.000, 15:33:56.818, 1587846836818
161, 114.81, -268.69, 103.53, 8.30, 0.000, 0.000, 0.000, 15:33:56.820, 1587846836820
162, 127.54, -264.78, 97.82, 17.59, 0.000, 0.000, 0.000, 15:33:56.820, 1587846836820
163, 143.22, -253.82, 100.31, 20.27, 0.000, 0.000, 0.000, 15:33:56.833, 1587846836833
164, 131.08, -256.43, 100.62, 13.34, 0.000, 0.000, 0.000, 15:33:56.833, 1587846836833
165, 118.85, -269.19, 98.01, 11.14, 0.000, 0.000, 0.000, 15:33:56.849, 1587846836849
166, 129.56, -279.21, 95.03, 24.28, 0.000, 0.000, 0.000, 15:33:56.849, 1587846836849
167, 132.89, -252.55, 112.82, 16.72, 0.000, 0.000, 0.000, 15:33:56.850, 1587846836850
168, 133.05, -259.36, 103.07, 7.61, 0.000, 0.000, 0.000, 15:33:56.850, 1587846836850
169, 134.96, -259.10, 103.05, 18.48, 0.000, 0.000, 0.000, 15:33:56.863, 1587846836863
170, 137.44, -250.75, 114.62, 17.21, 0.000, 0.000, 0.000, 15:33:56.863, 1587846836863
171, 125.02, -263.35, 102.28, 9.75, 0.000, 0.000, 0.000, 15:33:56.879, 1587846836879
172, 123.59, -270.87, 93.95, 17.03, 0.000, 0.000, 0.000, 15:33:56.879, 1587846836879
173, 136.79, -261.79, 102.21, 16.38, 0.000, 0.000, 0.000, 15:33:56.880, 1587846836880
174, 140.04, -259.47, 110.94, 12.19, 0.000, 0.000, 0.000, 15:33:56.880, 1587846836880
175, 112.80, -279.03, 91.19, 14.36, 0.000, 0.000, 0.000, 15:33:56.892, 1587846836892
176, 135.50, -271.88, 105.42, 19.74, 0.000, 0.000, 0.000, 15:33:56.892, 1587846836892
177, 139.84, -254.31, 105.80, 17.93, 0.000, 0.000, 0.000, 15:33:56.909, 1587846836909
178, 131.18, -266.03, 94.92, 9.39, 0.000, 0.000, 0.000, 15:33:56.909, 1587846836909
179, 118.27, -263.20, 105.17, 20.47, 0.000, 0.000, 0.000, 15:33:56.911, 1587846836911
180, 130.98, -258.32, 105.01, 20.59, 0.000, 0.000, 0.000, 15:33:56.911, 1587846836911
181, 131.68, -264.54, 103.03, 14.48, 0.000, 0.000, 0.000, 15:33:56.923, 1587846836923
182, 133.60, -263.64, 112.47, 18.49, 0.000, 0.000, 0.000, 15:33:56.923, 1587846836923
183, 137.83, -263.91, 107.98, 16.22, 0.000, 0.000, 0.000, 15:33:56.940, 1587846836940
184, 140.93, -245.81, 102.82, 16.41, 0.000, 0.000, 0.000, 15:33:56.940, 1587846836940
185, 120.29, -264.09, 98.71, 12.57, 0.000, 0.000, 0.000, 15:33:56.942, 1587846836942
186, 131.75, -256.61, 105.54, 23.64, 0.000, 0.000, 0.000, 15:33:56.942, 1587846836942
187, 140.35, -260.36, 101.98, 19.17, 0.000, 0.000, 0.000, 15:33:56.952, 1587846836952
188, 127.69, -281.46, 93.48, 12.09, 0.000, 0.000, 0.000, 15:33:56.952, 1587846836952
189, 127.67, -262.34, 99.12, 15.54, 0.000, 0.000, 0.000, 15:33:56.969, 1587846836969
190, 142.25, -248.70, 110.80, 18.06, 0.000, 0.000, 0.000, 15:33:56.969, 1587846836969
191, 128.64, -255.51, 95.23, 12.64, 0.000, 0.000, 0.000, 15:33:56.970, 1587846836970
192, 132.73, -268.41, 91.74, 17.93, 0.000, 0.000, 0.000, 15:33:56.970, 1587846836970
193, 132.48, -261.03, 100.43, 18.12, 0.000, 0.000, 0.000, 15:33:56.982, 1587846836982
194, 133.41, -260.87, 102.39, 8.67, 0.000, 0.000, 0.000, 15:33:56.982, 1587846836982
195, 121.11, -281.00, 86.04, 12.67, 0.000, 0.000, 0.000, 15:33:56.998, 1587846836998
196, 134.27, -271.92, 92.07, 16.18, 0.000, 0.000, 0.000, 15:33:56.998, 1587846836998
197, 133.36, -270.02, 106.93, 11.14, 0.000, 0.000, 0.000, 15:33:56.999, 1587846836999
198, 127.93, -261.14, 95.19, 11.46, 0.000, 0.000, 0.000, 15:33:56.999, 1587846836999
199, 131.83, -258.61, 93.62, 21.51, 0.000, 0.000, 0.000, 15:33:57.014, 1587846837014
200, 139.53, -245.94, 116.28, 21.47, 0.000, 0.000, 0.000, 15:33:57.014, 1587846837014
0, 136.18, -258.90, 95.15, 8.15, 0.000, 0.000, 0.000, 15:33:57.016, 1587846837016
1, 129.96, -269.91, 92.66, 19.99, 0.000, 0.000, 0.000, 15:33:57.028, 1587846837028
2, 136.14, -254.69, 109.75, 21.83, 0.000, 0.000, 0.000, 15:33:57.028, 1587846837028
3, 137.07, -263.89, 103.24, 11.09, 0.000, 0.000, 0.000, 15:33:57.045, 1587846837045
4, 113.83, -268.11, 87.91, 13.17, 0.000, 0.000, 0.000, 15:33:57.045, 1587846837045
5, 137.33, -253.28, 97.81, 17.19, 0.000, 0.000, 0.000, 15:33:57.046, 1587846837046
6, 149.85, -252.59, 106.67, 12.72, 0.000, 0.000, 0.000, 15:33:57.046, 1587846837046
7, 123.55, -267.47, 93.85, 9.14, 0.000, 0.000, 0.000, 15:33:57.058, 1587846837058
8, 128.72, -259.34, 100.10, 21.15, 0.000, 0.000, 0.000, 15:33:57.058, 1587846837058
9, 146.27, -254.42, 99.35, 14.58, 0.000, 0.000, 0.000, 15:33:57.073, 1587846837073
10, 128.55, -264.78, 97.11, 13.15, 0.000, 0.000, 0.000, 15:33:57.073, 1587846837073
11, 113.03, -276.29, 83.54, 15.08, 0.000, 0.000, 0.000, 15:33:57.074, 1587846837074
12, 147.40, -246.50, 107.60, 19.43, 0.000, 0.000, 0.000, 15:33:57.074, 1587846837074
13, 133.07, -248.15, 103.90, 16.57, 0.000, 0.000, 0.000, 15:33:57.088, 1587846837088
14, 120.85, -264.74, 92.53, 15.20, 0.000, 0.000, 0.000, 15:33:57.088, 1587846837088
15, 149.04, -253.29, 103.41, 25.48, 0.000, 0.000, 0.000, 15:33:57.119, 1587846837119
16, 141.60, -251.06, 104.63, 14.67, 0.000, 0.000, 0.000, 15:33:57.119, 1587846837119
17, 130.81, -266.53, 91.19, 9.95, 0.000, 0.000, 0.000, 15:33:57.129, 1587846837129
18, 129.37, -274.04, 95.36, 18.47, 0.000, 0.000, 0.000, 15:33:57.129, 1587846837129
19, 139.55, -250.02, 112.91, 20.88, 0.000, 0.000, 0.000, 15:33:57.130, 1587846837130
20, 144.66, -241.51, 102.89, 11.60, 0.000, 0.000, 0.000, 15:33:57.130, 1587846837130
21, 117.41, -266.67, 90.54, 14.09, 0.000, 0.000, 0.000, 15:33:57.131, 1587846837131
22, 134.15, -256.21, 116.28, 15.84, 0.000, 0.000, 0.000, 15:33:57.131, 1587846837131
23, 149.39, -243.58, 114.19, 10.86, 0.000, 0.000, 0.000, 15:33:57.136, 1587846837136
24, 126.22, -268.75, 96.66, 14.25, 0.000, 0.000, 0.000, 15:33:57.136, 1587846837136
25, 125.63, -263.04, 113.38, 26.24, 0.000, 0.000, 0.000, 15:33:57.147, 1587846837147
26, 130.96, -259.42, 119.01, 13.21, 0.000, 0.000, 0.000, 15:33:57.147, 1587846837147
27, 114.28, -255.61, 98.14, 11.77, 0.000, 0.000, 0.000, 15:33:57.166, 1587846837166
28, 118.99, -255.54, 100.35, 25.31, 0.000, 0.000, 0.000, 15:33:57.166, 1587846837166
29, 145.33, -249.35, 113.25, 17.27, 0.000, 0.000, 0.000, 15:33:57.169, 1587846837169
30, 128.50, -249.13, 114.49, 12.32, 0.000, 0.000, 0.000, 15:33:57.169, 1587846837169
31, 119.30, -276.00, 92.55, 16.62, 0.000, 0.000, 0.000, 15:33:57.177, 1587846837177
32, 133.19, -250.63, 116.57, 19.73, 0.000, 0.000, 0.000, 15:33:57.177, 1587846837177
33, 133.35, -249.14, 108.55, 6.90, 0.000, 0.000, 0.000, 15:33:57.193, 1587846837193
34, 125.29, -262.71, 104.33, 15.82, 0.000, 0.000, 0.000, 15:33:57.193, 1587846837193
35, 123.04, -261.70, 111.47, 19.28, 0.000, 0.000, 0.000, 15:33:57.196, 1587846837196
36, 129.15, -253.47, 113.23, 14.85, 0.000, 0.000, 0.000, 15:33:57.196, 1587846837196
37, 126.87, -248.27, 104.56, 13.09, 0.000, 0.000, 0.000, 15:33:57.208, 1587846837208
38, 129.60, -252.55, 106.50, 19.90, 0.000, 0.000, 0.000, 15:33:57.208, 1587846837208
39, 135.19, -259.15, 105.43, 14.72, 0.000, 0.000, 0.000, 15:33:57.223, 1587846837223
40, 134.46, -268.26, 113.29, 4.45, 0.000, 0.000, 0.000, 15:33:57.223, 1587846837223
41, 133.34, -255.97, 114.82, 14.04, 0.000, 0.000, 0.000, 15:33:57.224, 1587846837224
42, 145.07, -241.04, 127.23, 21.92, 0.000, 0.000, 0.000, 15:33:57.224, 1587846837224
43, 157.93, -256.33, 139.40, 16.07, 0.000, 0.000, 0.000, 15:33:57.238, 1587846837238
44, 147.26, -234.40, 131.34, 12.63, 0.000, 0.000, 0.000, 15:33:57.238, 1587846837238
45, 163.36, -224.75, 128.96, 26.35, 0.000, 0.000, 0.000, 15:33:57.253, 1587846837253
46, 193.10, -215.48, 163.92, 11.28, 0.000, 0.000, 0.000, 15:33:57.253, 1587846837253
47, 175.26, -209.33, 138.15, 13.27, 0.000, 0.000, 0.000, 15:33:57.255, 1587846837255
48, 201.94, -180.31, 140.12, 25.57, 0.000, 0.000, 0.000, 15:33:57.255, 1587846837255
49, 222.23, -174.31, 151.91, 20.08, 0.000, 0.000, 0.000, 15:33:57.270, 1587846837270
50, 208.15, -186.03, 136.09, 9.03, 0.000, 0.000, 0.000, 15:33:57.270, 1587846837270
51, 204.25, -180.28, 135.76, 16.45, 0.000, 0.000, 0.000, 15:33:57.284, 1587846837284
52, 199.78, -169.37, 142.74, 27.92, 0.000, 0.000, 0.000, 15:33:57.284, 1587846837284
53, 214.25, -161.17, 138.13, 11.07, 0.000, 0.000, 0.000, 15:33:57.284, 1587846837284
54, 195.54, -183.16, 119.85, 15.67, 0.000, 0.000, 0.000, 15:33:57.284, 1587846837284
55, 183.02, -187.03, 127.26, 21.26, 0.000, 0.000, 0.000, 15:33:57.298, 1587846837298
56, 198.59, -179.84, 140.76, 15.78, 0.000, 0.000, 0.000, 15:33:57.298, 1587846837298
57, 182.79, -170.77, 129.48, 14.05, 0.000, 0.000, 0.000, 15:33:57.314, 1587846837314
58, 178.32, -183.78, 128.56, 15.69, 0.000, 0.000, 0.000, 15:33:57.314, 1587846837314
59, 185.81, -221.05, 93.44, 18.98, 0.000, 0.000, 0.000, 15:33:57.316, 1587846837316
60, 178.73, -174.83, 145.04, 11.92, 0.000, 0.000, 0.000, 15:33:57.316, 1587846837316
61, 152.18, -200.17, 124.53, 15.38, 0.000, 0.000, 0.000, 15:33:57.328, 1587846837328
62, 154.12, -232.00, 116.27, 22.24, 0.000, 0.000, 0.000, 15:33:57.328, 1587846837328
63, 166.37, -186.70, 132.61, 15.17, 0.000, 0.000, 0.000, 15:33:57.343, 1587846837343
64, 150.85, -202.26, 113.25, 11.79, 0.000, 0.000, 0.000, 15:33:57.343, 1587846837343
65, 149.08, -216.85, 105.94, 25.29, 0.000, 0.000, 0.000, 15:33:57.344, 1587846837344
66, 162.97, -214.20, 100.51, 16.37, 0.000, 0.000, 0.000, 15:33:57.344, 1587846837344
67, 149.25, -227.75, 103.19, 14.59, 0.000, 0.000, 0.000, 15:33:57.358, 1587846837358
68, 147.69, -240.49, 110.97, 18.44, 0.000, 0.000, 0.000, 15:33:57.358, 1587846837358
69, 131.74, -221.45, 99.11, 16.29, 0.000, 0.000, 0.000, 15:33:57.374, 1587846837374
70, 121.24, -244.42, 88.73, 8.87, 0.000, 0.000, 0.000, 15:33:57.374, 1587846837374
71, 133.33, -232.56, 102.83, 17.15, 0.000, 0.000, 0.000, 15:33:57.374, 1587846837374
72, 138.55, -233.46, 110.84, 19.98, 0.000, 0.000, 0.000, 15:33:57.374, 1587846837374
73, 134.80, -245.82, 94.81, 12.04, 0.000, 0.000, 0.000, 15:33:57.388, 1587846837388
74, 116.59, -270.00, 88.37, 13.80, 0.000, 0.000, 0.000, 15:33:57.388, 1587846837388
75, 112.59, -270.58, 94.27, 17.87, 0.000, 0.000, 0.000, 15:33:57.404, 1587846837404
76, 137.56, -260.99, 95.59, 14.22, 0.000, 0.000, 0.000, 15:33:57.404, 1587846837404
77, 125.61, -258.74, 96.87, 12.31, 0.000, 0.000, 0.000, 15:33:57.404, 1587846837404
78, 116.18, -272.46, 96.46, 17.87, 0.000, 0.000, 0.000, 15:33:57.404, 1587846837404
79, 115.88, -281.89, 108.36, 20.03, 0.000, 0.000, 0.000, 15:33:57.434, 1587846837434
80, 115.13, -276.54, 89.96, 8.82, 0.000, 0.000, 0.000, 15:33:57.434, 1587846837434
81, 115.67, -290.90, 82.05, 18.47, 0.000, 0.000, 0.000, 15:33:57.435, 1587846837435
82, 116.95, -281.39, 93.00, 16.33, 0.000, 0.000, 0.000, 15:33:57.435, 1587846837435
83, 87.21, -281.63, 113.71, 9.02, 0.000, 0.000, 0.000, 15:33:57.436, 1587846837436
84, 106.04, -282.84, 100.68, 13.63, 0.000, 0.000, 0.000, 15:33:57.436, 1587846837436
85, 113.97, -266.46, 97.53, 19.11, 0.000, 0.000, 0.000, 15:33:57.448, 1587846837448
86, 119.50, -273.87, 110.67, 13.65, 0.000, 0.000, 0.000, 15:33:57.448, 1587846837448
87, 113.82, -284.78, 97.14, 14.41, 0.000, 0.000, 0.000, 15:33:57.464, 1587846837464
88, 107.35, -288.37, 99.95, 18.65, 0.000, 0.000, 0.000, 15:33:57.464, 1587846837464
89, 113.54, -285.01, 109.17, 18.57, 0.000, 0.000, 0.000, 15:33:57.465, 1587846837465
90, 100.73, -282.45, 106.22, 8.95, 0.000, 0.000, 0.000, 15:33:57.465, 1587846837465
91, 92.73, -290.44, 102.80, 15.66, 0.000, 0.000, 0.000, 15:33:57.478, 1587846837478
92, 132.39, -275.60, 106.65, 21.57, 0.000, 0.000, 0.000, 15:33:57.478, 1587846837478
93, 122.80, -274.44, 114.36, 11.21, 0.000, 0.000, 0.000, 15:33:57.493, 1587846837493
94, 115.68, -286.70, 100.96, 15.39, 0.000, 0.000, 0.000, 15:33:57.493, 1587846837493
95, 114.90, -284.23, 95.65, 23.54, 0.000, 0.000, 0.000, 15:33:57.494, 1587846837494
96, 117.67, -283.14, 114.61, 13.82, 0.000, 0.000, 0.000, 15:33:57.494, 1587846837494
97, 128.54, -298.42, 119.55, 16.53, 0.000, 0.000, 0.000, 15:33:57.524, 1587846837524
98, 112.17, -275.34, 116.20, 17.78, 0.000, 0.000, 0.000, 15:33:57.524, 1587846837524
99, 134.41, -265.86, 135.63, 19.88, 0.000, 0.000, 0.000, 15:33:57.525, 1587846837525
100, 154.59, -265.33, 134.92, 7.87, 0.000, 0.000, 0.000, 15:33:57.525, 1587846837525
101, 143.69, -260.86, 138.15, 17.64, 0.000, 0.000, 0.000, 15:33:57.526, 1587846837526
102, 172.51, -220.83, 155.96, 19.93, 0.000, 0.000, 0.000, 15:33:57.526, 1587846837526
103, 179.50, -206.36, 147.61, 10.45, 0.000, 0.000, 0.000, 15:33:57.538, 1587846837538
104, 176.87, -204.39, 149.71, 17.36, 0.000, 0.000, 0.000, 15:33:57.538, 1587846837538
105, 211.69, -175.53, 145.06, 22.82, 0.000, 0.000, 0.000, 15:33:57.554, 1587846837554
106, 223.23, -171.24, 122.14, 17.31, 0.000, 0.000, 0.000, 15:33:57.554, 1587846837554
107, 217.79, -183.61, 124.21, 11.03, 0.000, 0.000, 0.000, 15:33:57.554, 1587846837554
108, 211.06, -174.40, 104.75, 23.89, 0.000, 0.000, 0.000, 15:33:57.554, 1587846837554
109, 201.64, -173.49, 86.49, 21.19, 0.000, 0.000, 0.000, 15:33:57.567, 1587846837567
110, 190.88, -178.92, 139.84, 10.31, 0.000, 0.000, 0.000, 15:33:57.567, 1587846837567
111, 175.99, -198.95, 107.64, 17.08, 0.000, 0.000, 0.000, 15:33:57.584, 1587846837584
112, 198.51, -201.17, 69.75, 21.22, 0.000, 0.000, 0.000, 15:33:57.584, 1587846837584
113, 209.65, -180.25, 126.45, 14.41, 0.000, 0.000, 0.000, 15:33:57.585, 1587846837585
114, 178.77, -207.06, 124.96, 12.81, 0.000, 0.000, 0.000, 15:33:57.585, 1587846837585
115, 171.90, -201.19, 108.43, 21.54, 0.000, 0.000, 0.000, 15:33:57.598, 1587846837598
116, 164.84, -209.44, 103.99, 16.31, 0.000, 0.000, 0.000, 15:33:57.598, 1587846837598
117, 119.73, -260.94, 90.04, 14.79, 0.000, 0.000, 0.000, 15:33:57.614, 1587846837614
118, 165.91, -204.50, 106.01, 23.40, 0.000, 0.000, 0.000, 15:33:57.614, 1587846837614
119, 158.60, -205.77, 119.55, 16.34, 0.000, 0.000, 0.000, 15:33:57.615, 1587846837615
120, 141.53, -259.79, 74.09, 11.95, 0.000, 0.000, 0.000, 15:33:57.615, 1587846837615
121, 132.62, -227.39, 120.95, 19.58, 0.000, 0.000, 0.000, 15:33:57.628, 1587846837628
122, 157.91, -210.65, 101.16, 22.23, 0.000, 0.000, 0.000, 15:33:57.628, 1587846837628
123, 123.99, -246.26, 81.71, 13.15, 0.000, 0.000, 0.000, 15:33:57.644, 1587846837644
124, 110.68, -255.47, 71.19, 14.09, 0.000, 0.000, 0.000, 15:33:57.644, 1587846837644
125, 140.25, -248.38, 102.68, 16.51, 0.000, 0.000, 0.000, 15:33:57.644, 1587846837644
126, 162.02, -237.42, 98.36, 15.11, 0.000, 0.000, 0.000, 15:33:57.644, 1587846837644
127, 138.73, -257.14, 82.40, 11.66, 0.000, 0.000, 0.000, 15:33:57.674, 1587846837674
128, 125.25, -250.42, 81.22, 17.62, 0.000, 0.000, 0.000, 15:33:57.674, 1587846837674
129, 126.94, -260.08, 81.32, 21.73, 0.000, 0.000, 0.000, 15:33:57.675, 1587846837675
130, 103.68, -282.09, 76.70, 9.75, 0.000, 0.000, 0.000, 15:33:57.675, 1587846837675
131, 110.35, -272.68, 85.80, 15.24, 0.000, 0.000, 0.000, 15:33:57.676, 1587846837676
132, 130.31, -283.55, 90.13, 22.40, 0.000, 0.000, 0.000, 15:33:57.676, 1587846837676
133, 95.78, -288.99, 92.27, 12.32, 0.000, 0.000, 0.000, 15:33:57.688, 1587846837688
134, 126.87, -270.48, 85.98, 10.95, 0.000, 0.000, 0.000, 15:33:57.688, 1587846837688
135, 122.43, -270.84, 92.95, 18.66, 0.000, 0.000, 0.000, 15:33:57.704, 1587846837704
136, 119.02, -281.81, 95.10, 18.85, 0.000, 0.000, 0.000, 15:33:57.704, 1587846837704
137, 99.49, -281.22, 87.42, 10.02, 0.000, 0.000, 0.000, 15:33:57.705, 1587846837705
138, 113.04, -279.92, 98.19, 18.51, 0.000, 0.000, 0.000, 15:33:57.705, 1587846837705
139, 125.10, -276.30, 103.31, 16.26, 0.000, 0.000, 0.000, 15:33:57.717, 1587846837717
140, 114.44, -292.05, 104.50, 14.41, 0.000, 0.000, 0.000, 15:33:57.717, 1587846837717
141, 99.89, -298.55, 88.79, 17.91, 0.000, 0.000, 0.000, 15:33:57.736, 1587846837736
142, 114.79, -285.75, 107.62, 21.04, 0.000, 0.000, 0.000, 15:33:57.736, 1587846837736
143, 115.82, -271.30, 100.08, 16.14, 0.000, 0.000, 0.000, 15:33:57.749, 1587846837749
144, 105.28, -291.89, 76.72, 17.78, 0.000, 0.000, 0.000, 15:33:57.749, 1587846837749
145, 110.03, -289.78, 88.05, 16.65, 0.000, 0.000, 0.000, 15:33:57.750, 1587846837750
146, 119.16, -290.11, 106.29, 12.63, 0.000, 0.000, 0.000, 15:33:57.750, 1587846837750
147, 88.67, -293.36, 100.82, 12.64, 0.000, 0.000, 0.000, 15:33:57.765, 1587846837765
148, 113.80, -290.34, 96.26, 19.17, 0.000, 0.000, 0.000, 15:33:57.765, 1587846837765
149, 124.67, -285.52, 96.56, 22.46, 0.000, 0.000, 0.000, 15:33:57.765, 1587846837765
150, 122.41, -272.82, 107.56, 11.48, 0.000, 0.000, 0.000, 15:33:57.765, 1587846837765
151, 105.57, -277.12, 99.03, 20.70, 0.000, 0.000, 0.000, 15:33:57.778, 1587846837778
152, 101.67, -288.00, 104.89, 17.09, 0.000, 0.000, 0.000, 15:33:57.778, 1587846837778
153, 114.23, -277.53, 106.12, 11.56, 0.000, 0.000, 0.000, 15:33:57.794, 1587846837794
154, 118.06, -285.72, 94.32, 13.16, 0.000, 0.000, 0.000, 15:33:57.794, 1587846837794
155, 113.75, -305.22, 95.26, 16.99, 0.000, 0.000, 0.000, 15:33:57.795, 1587846837795
156, 108.71, -275.49, 108.45, 16.86, 0.000, 0.000, 0.000, 15:33:57.795, 1587846837795
157, 95.99, -282.76, 95.66, 12.12, 0.000, 0.000, 0.000, 15:33:57.808, 1587846837808
158, 92.92, -280.59, 98.31, 19.52, 0.000, 0.000, 0.000, 15:33:57.808, 1587846837808
159, 112.61, -279.69, 90.77, 18.85, 0.000, 0.000, 0.000, 15:33:57.824, 1587846837824
160, 125.84, -304.45, 112.04, 13.01, 0.000, 0.000, 0.000, 15:33:57.824, 1587846837824
161, 107.06, -288.53, 111.69, 17.80, 0.000, 0.000, 0.000, 15:33:57.824, 1587846837824
162, 125.88, -261.58, 113.96, 20.31, 0.000, 0.000, 0.000, 15:33:57.824, 1587846837824
163, 116.81, -277.49, 106.32, 15.22, 0.000, 0.000, 0.000, 15:33:57.838, 1587846837838
164, 103.51, -291.79, 103.76, 15.01, 0.000, 0.000, 0.000, 15:33:57.838, 1587846837838
165, 116.04, -275.26, 108.38, 22.90, 0.000, 0.000, 0.000, 15:33:57.854, 1587846837854
166, 117.59, -277.29, 103.86, 16.60, 0.000, 0.000, 0.000, 15:33:57.854, 1587846837854
167, 104.00, -285.41, 88.10, 13.61, 0.000, 0.000, 0.000, 15:33:57.855, 1587846837855
168, 101.32, -296.84, 103.08, 17.34, 0.000, 0.000, 0.000, 15:33:57.855, 1587846837855
169, 124.59, -276.45, 112.89, 21.41, 0.000, 0.000, 0.000, 15:33:57.868, 1587846837868
170, 125.78, -268.18, 108.76, 14.30, 0.000, 0.000, 0.000, 15:33:57.868, 1587846837868
171, 111.20, -282.47, 92.66, 18.37, 0.000, 0.000, 0.000, 15:33:57.884, 1587846837884
172, 122.49, -270.70, 110.16, 21.20, 0.000, 0.000, 0.000, 15:33:57.884, 1587846837884
173, 111.78, -289.04, 100.87, 11.23, 0.000, 0.000, 0.000, 15:33:57.884, 1587846837884
174, 111.72, -277.63, 102.66, 14.46, 0.000, 0.000, 0.000, 15:33:57.884, 1587846837884
175, 123.63, -274.35, 110.28, 24.16, 0.000, 0.000, 0.000, 15:33:57.914, 1587846837914
176, 131.74, -277.15, 112.73, 17.87, 0.000, 0.000, 0.000, 15:33:57.914, 1587846837914
177, 118.90, -307.10, 96.96, 12.07, 0.000, 0.000, 0.000, 15:33:57.915, 1587846837915
178, 114.90, -266.86, 105.48, 19.69, 0.000, 0.000, 0.000, 15:33:57.915, 1587846837915
179, 132.52, -263.01, 106.03, 18.02, 0.000, 0.000, 0.000, 15:33:57.916, 1587846837916
180, 121.92, -287.53, 92.20, 9.95, 0.000, 0.000, 0.000, 15:33:57.916, 1587846837916
181, 107.24, -283.59, 105.00, 10.63, 0.000, 0.000, 0.000, 15:33:57.928, 1587846837928
182, 114.85, -268.13, 111.57, 21.21, 0.000, 0.000, 0.000, 15:33:57.928, 1587846837928
183, 122.37, -267.06, 116.08, 12.57, 0.000, 0.000, 0.000, 15:33:57.947, 1587846837947
184, 108.21, -294.32, 98.07, 14.38, 0.000, 0.000, 0.000, 15:33:57.947, 1587846837947
185, 105.39, -282.50, 107.03, 9.56, 0.000, 0.000, 0.000, 15:33:57.948, 1587846837948
186, 126.06, -256.08, 114.47, 15.16, 0.000, 0.000, 0.000, 15:33:57.948, 1587846837948
187, 119.46, -278.17, 102.64, 10.50, 0.000, 0.000, 0.000, 15:33:57.958, 1587846837958
188, 133.58, -281.49, 103.31, 17.05, 0.000, 0.000, 0.000, 15:33:57.958, 1587846837958
189, 116.76, -279.02, 108.97, 17.89, 0.000, 0.000, 0.000, 15:33:57.974, 1587846837974
190, 117.87, -270.53, 99.51, 11.34, 0.000, 0.000, 0.000, 15:33:57.974, 1587846837974
191, 120.29, -270.02, 110.59, 14.13, 0.000, 0.000, 0.000, 15:33:57.989, 1587846837989
192, 110.05, -264.96, 114.85, 24.18, 0.000, 0.000, 0.000, 15:33:57.989, 1587846837989
193, 117.85, -276.39, 110.79, 12.82, 0.000, 0.000, 0.000, 15:33:57.989, 1587846837989
194, 111.38, -277.15, 103.01, 12.68, 0.000, 0.000, 0.000, 15:33:57.989, 1587846837989
195, 123.15, -273.47, 102.15, 22.00, 0.000, 0.000, 0.000, 15:33:58.004, 1587846838004
196, 126.95, -276.07, 118.84, 11.11, 0.000, 0.000, 0.000, 15:33:58.004, 1587846838004
197, 118.32, -271.31, 103.51, 10.54, 0.000, 0.000, 0.000, 15:33:58.004, 1587846838004
198, 117.23, -275.17, 105.48, 17.21, 0.000, 0.000, 0.000, 15:33:58.005, 1587846838005
199, 127.12, -268.70, 113.58, 21.00, 0.000, 0.000, 0.000, 15:33:58.019, 1587846838019
200, 116.19, -273.04, 105.64, 14.01, 0.000, 0.000, 0.000, 15:33:58.019, 1587846838019
0, 100.35, -271.32, 97.39, 18.14, 0.000, 0.000, 0.000, 15:33:58.019, 1587846838019
1, 123.05, -261.76, 118.15, 24.13, 0.000, 0.000, 0.000, 15:33:58.032, 1587846838032
2, 135.75, -262.05, 111.01, 19.09, 0.000, 0.000, 0.000, 15:33:58.032, 1587846838032
3, 119.23, -276.96, 97.59, 11.94, 0.000, 0.000, 0.000, 15:33:58.049, 1587846838049
4, 122.61, -261.72, 106.39, 23.84, 0.000, 0.000, 0.000, 15:33:58.049, 1587846838049
5, 131.32, -259.93, 110.95, 19.89, 0.000, 0.000, 0.000, 15:33:58.050, 1587846838050
6, 121.34, -278.50, 94.28, 15.05, 0.000, 0.000, 0.000, 15:33:58.050, 1587846838050
7, 119.38, -272.06, 110.38, 20.43, 0.000, 0.000, 0.000, 15:33:58.063, 1587846838063
8, 125.83, -260.37, 108.63, 15.30, 0.000, 0.000, 0.000, 15:33:58.063, 1587846838063
9, 125.06, -262.72, 108.31, 11.35, 0.000, 0.000, 0.000, 15:33:58.079, 1587846838079
10, 119.82, -269.06, 99.30, 16.49, 0.000, 0.000, 0.000, 15:33:58.079, 1587846838079
11, 132.23, -262.95, 110.34, 25.48, 0.000, 0.000, 0.000, 15:33:58.081, 1587846838081
12, 127.79, -269.83, 109.78, 15.88, 0.000, 0.000, 0.000, 15:33:58.081, 1587846838081
13, 117.07, -273.61, 105.25, 14.01, 0.000, 0.000, 0.000, 15:33:58.093, 1587846838093
14, 125.17, -262.86, 107.97, 21.60, 0.000, 0.000, 0.000, 15:33:58.093, 1587846838093
15, 128.07, -268.86, 110.98, 19.09, 0.000, 0.000, 0.000, 15:33:58.110, 1587846838110
16, 124.49, -269.72, 94.63, 8.97, 0.000, 0.000, 0.000, 15:33:58.110, 1587846838110
17, 118.40, -272.88, 94.24, 20.54, 0.000, 0.000, 0.000, 15:33:58.117, 1587846838117
18, 128.73, -255.77, 116.00, 18.95, 0.000, 0.000, 0.000, 15:33:58.117, 1587846838117
19, 126.72, -263.67, 101.46, 10.41, 0.000, 0.000, 0.000, 15:33:58.124, 1587846838124
20, 120.79, -279.26, 100.26, 17.18, 0.000, 0.000, 0.000, 15:33:58.124, 1587846838124
21, 119.08, -272.57, 115.34, 21.65, 0.000, 0.000, 0.000, 15:33:58.139, 1587846838139
22, 130.72, -254.60, 111.84, 15.24, 0.000, 0.000, 0.000, 15:33:58.139, 1587846838139
23, 120.20, -262.47, 103.48, 14.16, 0.000, 0.000, 0.000, 15:33:58.140, 1587846838140
24, 126.90, -265.71, 97.62, 25.23, 0.000, 0.000, 0.000, 15:33:58.140, 1587846838140
25, 145.70, -258.76, 112.01, 18.18, 0.000, 0.000, 0.000, 15:33:58.153, 1587846838153
26, 127.60, -270.85, 94.21, 9.16, 0.000, 0.000, 0.000, 15:33:58.153, 1587846838153
27, 116.39, -271.44, 102.09, 15.71, 0.000, 0.000, 0.000, 15:33:58.169, 1587846838169
28, 143.10, -247.83, 115.40, 20.31, 0.000, 0.000, 0.000, 15:33:58.169, 1587846838169
29, 126.79, -260.36, 99.95, 13.43, 0.000, 0.000, 0.000, 15:33:58.170, 1587846838170
30, 110.96, -268.77, 97.36, 16.02, 0.000, 0.000, 0.000, 15:33:58.170, 1587846838170
31, 130.70, -253.27, 105.98, 23.14, 0.000, 0.000, 0.000, 15:33:58.183, 1587846838183
32, 132.45, -256.82, 109.08, 16.39, 0.000, 0.000, 0.000, 15:33:58.183, 1587846838183
33, 132.67, -267.33, 104.79, 14.80, 0.000, 0.000, 0.000, 15:33:58.201, 1587846838201
34, 127.43, -263.92, 102.32, 24.42, 0.000, 0.000, 0.000, 15:33:58.201, 1587846838201
35, 129.61, -267.25, 118.78, 18.41, 0.000, 0.000, 0.000, 15:33:58.203, 1587846838203
36, 126.37, -267.37, 108.86, 14.62, 0.000, 0.000, 0.000, 15:33:58.203, 1587846838203
37, 108.80, -268.87, 110.79, 21.48, 0.000, 0.000, 0.000, 15:33:58.230, 1587846838230
38, 138.38, -246.92, 116.41, 20.10, 0.000, 0.000, 0.000, 15:33:58.230, 1587846838230
39, 128.67, -263.51, 100.02, 8.44, 0.000, 0.000, 0.000, 15:33:58.232, 1587846838232
40, 118.40, -272.08, 95.06, 17.83, 0.000, 0.000, 0.000, 15:33:58.232, 1587846838232
41, 129.14, -265.45, 103.67, 22.27, 0.000, 0.000, 0.000, 15:33:58.233, 1587846838233
42, 133.70, -254.49, 112.59, 15.34, 0.000, 0.000, 0.000, 15:33:58.233, 1587846838233
43, 121.73, -270.85, 98.43, 12.61, 0.000, 0.000, 0.000, 15:33:58.243, 1587846838243
44, 117.35, -266.30, 105.71, 19.91, 0.000, 0.000, 0.000, 15:33:58.243, 1587846838243
45, 130.63, -254.59, 111.59, 16.58, 0.000, 0.000, 0.000, 15:33:58.259, 1587846838259
46, 125.66, -262.31, 107.25, 11.66, 0.000, 0.000, 0.000, 15:33:58.259, 1587846838259
47, 127.94, -272.25, 100.56, 18.93, 0.000, 0.000, 0.000, 15:33:58.260, 1587846838260
48, 135.55, -249.98, 108.18, 18.39, 0.000, 0.000, 0.000, 15:33:58.260, 1587846838260
49, 126.65, -262.03, 108.28, 12.77, 0.000, 0.000, 0.000, 15:33:58.290, 1587846838290
50, 121.50, -258.13, 106.90, 13.82, 0.000, 0.000, 0.000, 15:33:58.290, 1587846838290
51, 133.02, -256.54, 109.69, 19.63, 0.000, 0.000, 0.000, 15:33:58.291, 1587846838291
52, 134.62, -262.51, 108.89, 17.77, 0.000, 0.000, 0.000, 15:33:58.291, 1587846838291
53, 121.40, -272.22, 100.02, 16.76, 0.000, 0.000, 0.000, 15:33:58.292, 1587846838292
54, 127.64, -256.74, 108.69, 16.41, 0.000, 0.000, 0.000, 15:33:58.292, 1587846838292
55, 134.65, -266.51, 107.84, 12.09, 0.000, 0.000, 0.000, 15:33:58.303, 1587846838303
56, 121.62, -273.74, 100.61, 13.98, 0.000, 0.000, 0.000, 15:33:58.303, 1587846838303
57, 122.61, -255.49, 107.82, 19.41, 0.000, 0.000, 0.000, 15:33:58.319, 1587846838319
58, 137.30, -247.98, 115.89, 17.56, 0.000, 0.000, 0.000, 15:33:58.319, 1587846838319
59, 132.56, -265.40, 112.58, 13.45, 0.000, 0.000, 0.000, 15:33:58.320, 1587846838320
60, 123.12, -271.39, 96.94, 18.85, 0.000, 0.000, 0.000, 15:33:58.320, 1587846838320
61, 135.60, -274.49, 109.56, 23.66, 0.000, 0.000, 0.000, 15:33:58.333, 1587846838333
62, 124.90, -257.86, 110.89, 15.14, 0.000, 0.000, 0.000, 15:33:58.333, 1587846838333
63, 121.04, -260.41, 86.85, 11.09, 0.000, 0.000, 0.000, 15:33:58.350, 1587846838350
64, 140.10, -247.18, 111.25, 22.53, 0.000, 0.000, 0.000, 15:33:58.350, 1587846838350
65, 139.13, -249.05, 115.50, 17.27, 0.000, 0.000, 0.000, 15:33:58.351, 1587846838351
66, 123.43, -262.13, 98.31, 15.72, 0.000, 0.000, 0.000, 15:33:58.351, 1587846838351
67, 124.86, -265.58, 107.28, 19.73, 0.000, 0.000, 0.000, 15:33:58.364, 1587846838364
68, 136.09, -257.05, 113.76, 17.37, 0.000, 0.000, 0.000, 15:33:58.364, 1587846838364
69, 133.48, -272.85, 103.14, 8.88, 0.000, 0.000, 0.000, 15:33:58.378, 1587846838378
70, 119.10, -273.69, 103.64, 16.72, 0.000, 0.000, 0.000, 15:33:58.379, 1587846838379
71, 138.34, -247.42, 110.75, 20.61, 0.000, 0.000, 0.000, 15:33:58.379, 1587846838379
72, 136.75, -246.63, 111.67, 14.87, 0.000, 0.000, 0.000, 15:33:58.379, 1587846838379
73, 117.50, -259.99, 106.84, 14.58, 0.000, 0.000, 0.000, 15:33:58.393, 1587846838393
74, 117.82, -249.75, 114.60, 22.26, 0.000, 0.000, 0.000, 15:33:58.393, 1587846838393
75, 145.44, -244.95, 114.66, 15.77, 0.000, 0.000, 0.000, 15:33:58.408, 1587846838408
76, 142.67, -257.03, 102.92, 11.17, 0.000, 0.000, 0.000, 15:33:58.408, 1587846838408
77, 148.63, -259.88, 105.13, 20.69, 0.000, 0.000, 0.000, 15:33:58.409, 1587846838409
78, 149.08, -264.85, 109.40, 17.48, 0.000, 0.000, 0.000, 15:33:58.409, 1587846838409
79, 140.31, -254.17, 109.28, 13.19, 0.000, 0.000, 0.000, 15:33:58.423, 1587846838423
80, 132.28, -260.67, 96.07, 17.17, 0.000, 0.000, 0.000, 15:33:58.423, 1587846838423
81, 145.27, -247.26, 111.78, 20.62, 0.000, 0.000, 0.000, 15:33:58.439, 1587846838439
82, 136.96, -257.21, 106.40, 10.71, 0.000, 0.000, 0.000, 15:33:58.439, 1587846838439
83, 114.09, -265.27, 94.22, 16.34, 0.000, 0.000, 0.000, 15:33:58.439, 1587846838439
84, 134.30, -260.50, 105.90, 21.64, 0.000, 0.000, 0.000, 15:33:58.439, 1587846838439
85, 123.66, -258.63, 107.73, 14.80, 0.000, 0.000, 0.000, 15:33:58.453, 1587846838453
86, 128.53, -268.50, 106.70, 6.21, 0.000, 0.000, 0.000, 15:33:58.453, 1587846838453
87, 133.23, -252.07, 107.29, 19.23, 0.000, 0.000, 0.000, 15:33:58.468, 1587846838468
88, 137.21, -244.83, 119.70, 17.43, 0.000, 0.000, 0.000, 15:33:58.468, 1587846838468
89, 138.66, -261.76, 104.09, 8.83, 0.000, 0.000, 0.000, 15:33:58.469, 1587846838469
90, 125.98, -264.91, 98.80, 13.88, 0.000, 0.000, 0.000, 15:33:58.469, 1587846838469
91, 143.59, -246.53, 109.50, 23.42, 0.000, 0.000, 0.000, 15:33:58.483, 1587846838483
92, 141.52, -249.36, 109.64, 14.36, 0.000, 0.000, 0.000, 15:33:58.483, 1587846838483
93, 105.78, -279.77, 93.90, 12.13, 0.000, 0.000, 0.000, 15:33:58.499, 1587846838499
94, 116.83, -270.56, 108.64, 17.59, 0.000, 0.000, 0.000, 15:33:58.499, 1587846838499
95, 149.76, -238.65, 112.55, 11.18, 0.000, 0.000, 0.000, 15:33:58.500, 1587846838500
96, 136.29, -257.08, 99.59, 10.54, 0.000, 0.000, 0.000, 15:33:58.500, 1587846838500
97, 128.48, -254.63, 109.27, 15.21, 0.000, 0.000, 0.000, 15:33:58.513, 1587846838513
98, 134.44, -251.08, 109.81, 22.62, 0.000, 0.000, 0.000, 15:33:58.513, 1587846838513
99, 126.57, -252.71, 102.73, 8.61, 0.000, 0.000, 0.000, 15:33:58.546, 1587846838546
100, 133.42, -260.66, 94.93, 12.60, 0.000, 0.000, 0.000, 15:33:58.546, 1587846838546
101, 132.25, -268.45, 109.99, 19.80, 0.000, 0.000, 0.000, 15:33:58.547, 1587846838547
102, 128.89, -258.14, 113.23, 13.84, 0.000, 0.000, 0.000, 15:33:58.547, 1587846838547
103, 135.68, -251.56, 98.73, 13.64, 0.000, 0.000, 0.000, 15:33:58.547, 1587846838547
104, 149.25, -247.73, 105.89, 19.92, 0.000, 0.000, 0.000, 15:33:58.547, 1587846838547
105, 155.16, -248.79, 103.15, 18.77, 0.000, 0.000, 0.000, 15:33:58.548, 1587846838548
106, 119.85, -265.03, 90.83, 15.68, 0.000, 0.000, 0.000, 15:33:58.548, 1587846838548
107, 141.96, -258.54, 110.92, 19.36, 0.000, 0.000, 0.000, 15:33:58.558, 1587846838558
108, 141.51, -235.94, 115.90, 18.40, 0.000, 0.000, 0.000, 15:33:58.558, 1587846838558
109, 131.91, -254.30, 94.78, 14.73, 0.000, 0.000, 0.000, 15:33:58.573, 1587846838573
110, 137.62, -258.01, 92.69, 18.35, 0.000, 0.000, 0.000, 15:33:58.573, 1587846838573
111, 136.57, -253.17, 108.54, 22.24, 0.000, 0.000, 0.000, 15:33:58.589, 1587846838589
112, 132.52, -258.02, 109.93, 10.26, 0.000, 0.000, 0.000, 15:33:58.589, 1587846838589
113, 120.36, -270.02, 101.03, 15.69, 0.000, 0.000, 0.000, 15:33:58.589, 1587846838589
114, 134.45, -253.19, 107.66, 18.60, 0.000, 0.000, 0.000, 15:33:58.589, 1587846838589
115, 144.93, -253.82, 116.72, 11.98, 0.000, 0.000, 0.000, 15:33:58.603, 1587846838603
116, 136.08, -259.49, 107.32, 11.41, 0.000, 0.000, 0.000, 15:33:58.603, 1587846838603
117, 127.12, -260.21, 97.35, 18.29, 0.000, 0.000, 0.000, 15:33:58.619, 1587846838619
118, 147.87, -239.93, 111.75, 21.14, 0.000, 0.000, 0.000, 15:33:58.619, 1587846838619
119, 136.93, -247.02, 112.14, 13.22, 0.000, 0.000, 0.000, 15:33:58.619, 1587846838619
120, 130.63, -256.65, 99.60, 19.09, 0.000, 0.000, 0.000, 15:33:58.619, 1587846838619
121, 133.48, -253.76, 109.27, 19.46, 0.000, 0.000, 0.000, 15:33:58.633, 1587846838633
122, 128.51, -253.94, 114.10, 8.61, 0.000, 0.000, 0.000, 15:33:58.633, 1587846838633
123, 134.22, -263.62, 104.98, 13.12, 0.000, 0.000, 0.000, 15:33:58.649, 1587846838649
124, 136.95, -263.59, 99.49, 18.19, 0.000, 0.000, 0.000, 15:33:58.649, 1587846838649
125, 159.43, -233.88, 110.07, 17.49, 0.000, 0.000, 0.000, 15:33:58.650, 1587846838650
126, 132.06, -252.55, 98.78, 14.62, 0.000, 0.000, 0.000, 15:33:58.650, 1587846838650
127, 128.44, -266.43, 98.16, 18.76, 0.000, 0.000, 0.000, 15:33:58.662, 1587846838662
128, 145.74, -249.79, 104.96, 17.84, 0.000, 0.000, 0.000, 15:33:58.662, 1587846838662
129, 130.68, -258.02, 109.95, 12.66, 0.000, 0.000, 0.000, 15:33:58.680, 1587846838680
130, 125.53, -262.14, 101.22, 15.25, 0.000, 0.000, 0.000, 15:33:58.680, 1587846838680
131, 145.19, -249.14, 111.13, 20.82, 0.000, 0.000, 0.000, 15:33:58.682, 1587846838682
132, 138.31, -263.42, 110.66, 12.56, 0.000, 0.000, 0.000, 15:33:58.682, 1587846838682
133, 123.87, -274.95, 92.48, 15.49, 0.000, 0.000, 0.000, 15:33:58.692, 1587846838692
134, 137.06, -247.96, 106.81, 19.92, 0.000, 0.000, 0.000, 15:33:58.692, 1587846838692
135, 142.41, -252.53, 110.62, 15.26, 0.000, 0.000, 0.000, 15:33:58.708, 1587846838708
136, 126.76, -257.31, 102.87, 15.00, 0.000, 0.000, 0.000, 15:33:58.708, 1587846838708
137, 129.76, -256.92, 106.86, 21.08, 0.000, 0.000, 0.000, 15:33:58.709, 1587846838709
138, 141.65, -252.56, 111.56, 18.87, 0.000, 0.000, 0.000, 15:33:58.709, 1587846838709
139, 133.13, -245.93, 119.31, 10.76, 0.000, 0.000, 0.000, 15:33:58.722, 1587846838722
140, 135.57, -259.45, 93.73, 14.76, 0.000, 0.000, 0.000, 15:33:58.722, 1587846838722
141, 135.32, -265.28, 99.69, 21.66, 0.000, 0.000, 0.000, 15:33:58.739, 1587846838739
142, 142.42, -248.24, 114.62, 16.82, 0.000, 0.000, 0.000, 15:33:58.739, 1587846838739
143, 117.82, -264.95, 92.76, 14.98, 0.000, 0.000, 0.000, 15:33:58.740, 1587846838740
144, 132.87, -260.71, 100.01, 17.71, 0.000, 0.000, 0.000, 15:33:58.740, 1587846838740
145, 143.40, -237.84, 106.97, 15.60, 0.000, 0.000, 0.000, 15:33:58.753, 1587846838753
146, 128.83, -258.68, 97.12, 14.50, 0.000, 0.000, 0.000, 15:33:58.753, 1587846838753
147, 141.36, -263.57, 98.99, 20.69, 0.000, 0.000, 0.000, 15:33:58.768, 1587846838768
148, 134.88, -252.12, 107.54, 17.59, 0.000, 0.000, 0.000, 15:33:58.768, 1587846838768
149, 128.75, -255.32, 100.57, 10.40, 0.000, 0.000, 0.000, 15:33:58.783, 1587846838783
150, 115.09, -270.59, 95.75, 18.55, 0.000, 0.000, 0.000, 15:33:58.783, 1587846838783
151, 132.23, -265.98, 104.33, 22.47, 0.000, 0.000, 0.000, 15:33:58.787, 1587846838787
152, 142.40, -247.32, 104.36, 13.32, 0.000, 0.000, 0.000, 15:33:58.787, 1587846838787
153, 132.00, -268.15, 100.76, 12.53, 0.000, 0.000, 0.000, 15:33:58.798, 1587846838798
154, 133.16, -245.52, 105.89, 20.73, 0.000, 0.000, 0.000, 15:33:58.798, 1587846838798
155, 147.34, -242.40, 112.25, 19.89, 0.000, 0.000, 0.000, 15:33:58.799, 1587846838799
156, 127.99, -270.06, 92.92, 12.56, 0.000, 0.000, 0.000, 15:33:58.799, 1587846838799
157, 128.50, -251.20, 101.21, 19.06, 0.000, 0.000, 0.000, 15:33:58.813, 1587846838813
158, 133.01, -247.14, 113.27, 22.30, 0.000, 0.000, 0.000, 15:33:58.813, 1587846838813
159, 117.18, -260.09, 97.44, 12.18, 0.000, 0.000, 0.000, 15:33:58.828, 1587846838828
160, 134.89, -263.16, 103.11, 19.40, 0.000, 0.000, 0.000, 15:33:58.828, 1587846838828
161, 140.28, -246.30, 111.28, 22.38, 0.000, 0.000, 0.000, 15:33:58.829, 1587846838829
162, 131.57, -249.22, 109.04, 11.10, 0.000, 0.000, 0.000, 15:33:58.829, 1587846838829
163, 128.05, -267.96, 93.45, 15.97, 0.000, 0.000, 0.000, 15:33:58.859, 1587846838859
164, 128.46, -262.66, 103.65, 22.57, 0.000, 0.000, 0.000, 15:33:58.859, 1587846838859
165, 133.30, -259.46, 112.47, 13.09, 0.000, 0.000, 0.000, 15:33:58.860, 1587846838860
166, 130.26, -262.83, 101.61, 9.94, 0.000, 0.000, 0.000, 15:33:58.860, 1587846838860
167, 130.68, -262.97, 96.22, 16.71, 0.000, 0.000, 0.000, 15:33:58.860, 1587846838860
168, 142.65, -249.76, 110.96, 20.94, 0.000, 0.000, 0.000, 15:33:58.860, 1587846838860
169, 130.38, -256.52, 105.76, 10.46, 0.000, 0.000, 0.000, 15:33:58.872, 1587846838872
170, 120.63, -265.31, 95.97, 13.29, 0.000, 0.000, 0.000, 15:33:58.872, 1587846838872
171, 131.37, -250.93, 116.48, 23.91, 0.000, 0.000, 0.000, 15:33:58.889, 1587846838889
172, 144.42, -255.38, 119.15, 11.11, 0.000, 0.000, 0.000, 15:33:58.889, 1587846838889
173, 127.55, -270.37, 97.45, 15.43, 0.000, 0.000, 0.000, 15:33:58.890, 1587846838890
174, 135.41, -249.38, 106.83, 16.93, 0.000, 0.000, 0.000, 15:33:58.890, 1587846838890
175, 118.77, -251.97, 117.10, 15.29, 0.000, 0.000, 0.000, 15:33:58.903, 1587846838903
176, 133.53, -264.84, 98.96, 8.94, 0.000, 0.000, 0.000, 15:33:58.903, 1587846838903
177, 130.09, -263.73, 95.76, 19.16, 0.000, 0.000, 0.000, 15:33:58.919, 1587846838919
178, 144.60, -249.82, 108.22, 24.92, 0.000, 0.000, 0.000, 15:33:58.919, 1587846838919
179, 133.07, -257.96, 112.70, 14.79, 0.000, 0.000, 0.000, 15:33:58.920, 1587846838920
180, 124.48, -273.68, 96.74, 17.27, 0.000, 0.000, 0.000, 15:33:58.920, 1587846838920
181, 132.49, -266.94, 100.86, 19.90, 0.000, 0.000, 0.000, 15:33:58.934, 1587846838934
182, 118.70, -252.22, 117.31, 10.67, 0.000, 0.000, 0.000, 15:33:58.934, 1587846838934
183, 127.39, -248.85, 109.10, 11.29, 0.000, 0.000, 0.000, 15:33:58.948, 1587846838948
184, 130.45, -254.81, 109.97, 17.77, 0.000, 0.000, 0.000, 15:33:58.948, 1587846838948
185, 125.85, -253.07, 116.88, 16.90, 0.000, 0.000, 0.000, 15:33:58.949, 1587846838949
186, 118.70, -267.42, 98.80, 11.90, 0.000, 0.000, 0.000, 15:33:58.949, 1587846838949
187, 124.23, -262.10, 109.39, 19.14, 0.000, 0.000, 0.000, 15:33:58.963, 1587846838963
188, 119.06, -254.24, 122.36, 19.47, 0.000, 0.000, 0.000, 15:33:58.963, 1587846838963
189, 109.64, -257.03, 117.49, 13.66, 0.000, 0.000, 0.000, 15:33:58.979, 1587846838979
190, 116.51, -270.00, 105.97, 14.19, 0.000, 0.000, 0.000, 15:33:58.979, 1587846838979
191, 131.75, -259.00, 117.19, 17.40, 0.000, 0.000, 0.000, 15:33:58.980, 1587846838980
192, 122.78, -253.57, 110.79, 12.45, 0.000, 0.000, 0.000, 15:33:58.980, 1587846838980
193, 116.11, -265.66, 109.03, 16.06, 0.000, 0.000, 0.000, 15:33:58.992, 1587846838992
194, 131.82, -254.73, 113.91, 23.33, 0.000, 0.000, 0.000, 15:33:58.992, 1587846838992
195, 127.41, -264.94, 122.04, 14.97, 0.000, 0.000, 0.000, 15:33:59.008, 1587846839008
196, 132.59, -249.40, 119.81, 14.13, 0.000, 0.000, 0.000, 15:33:59.008, 1587846839008
197, 128.05, -251.98, 105.49, 21.05, 0.000, 0.000, 0.000, 15:33:59.009, 1587846839009
198, 129.14, -251.56, 117.91, 16.85, 0.000, 0.000, 0.000, 15:33:59.009, 1587846839009
199, 130.30, -259.76, 110.63, 3.26, 0.000, 0.000, 0.000, 15:33:59.023, 1587846839023
200, 124.62, -261.29, 106.38, 13.98, 0.000, 0.000, 0.000, 15:33:59.023, 1587846839023
0, 135.42, -251.87, 116.35, 18.43, 0.000, 0.000, 0.000, 15:33:59.024, 1587846839024
1, 126.25, -246.43, 122.98, 16.78, 0.000, 0.000, 0.000, 15:33:59.038, 1587846839038
2, 120.68, -262.78, 104.44, 14.73, 0.000, 0.000, 0.000, 15:33:59.038, 1587846839038
3, 140.65, -254.85, 114.29, 20.58, 0.000, 0.000, 0.000, 15:33:59.053, 1587846839053
4, 141.56, -254.23, 123.76, 15.06, 0.000, 0.000, 0.000, 15:33:59.053, 1587846839053
5, 129.85, -252.83, 118.21, 13.56, 0.000, 0.000, 0.000, 15:33:59.054, 1587846839054
6, 145.35, -242.58, 120.66, 17.49, 0.000, 0.000, 0.000, 15:33:59.054, 1587846839054
7, 168.51, -225.72, 146.37, 17.23, 0.000, 0.000, 0.000, 15:33:59.068, 1587846839068
8, 163.05, -229.66, 141.58, 10.46, 0.000, 0.000, 0.000, 15:33:59.068, 1587846839068
9, 181.85, -218.08, 142.91, 15.75, 0.000, 0.000, 0.000, 15:33:59.084, 1587846839084
10, 192.43, -190.23, 157.72, 20.94, 0.000, 0.000, 0.000, 15:33:59.084, 1587846839084
11, 205.09, -176.23, 154.41, 16.44, 0.000, 0.000, 0.000, 15:33:59.084, 1587846839084
12, 205.50, -180.09, 147.45, 14.21, 0.000, 0.000, 0.000, 15:33:59.084, 1587846839084
13, 211.43, -168.38, 154.56, 23.79, 0.000, 0.000, 0.000, 15:33:59.098, 1587846839098
14, 212.96, -166.26, 148.95, 16.55, 0.000, 0.000, 0.000, 15:33:59.098, 1587846839098
15, 186.76, -190.18, 129.76, 10.00, 0.000, 0.000, 0.000, 15:33:59.117, 1587846839117
16, 191.46, -172.37, 131.28, 21.53, 0.000, 0.000, 0.000, 15:33:59.117, 1587846839117
17, 202.42, -172.42, 132.57, 19.49, 0.000, 0.000, 0.000, 15:33:59.118, 1587846839118
18, 195.49, -165.37, 135.80, 12.86, 0.000, 0.000, 0.000, 15:33:59.118, 1587846839118
19, 197.22, -199.68, 125.90, 18.52, 0.000, 0.000, 0.000, 15:33:59.128, 1587846839128
20, 186.57, -182.24, 129.93, 20.98, 0.000, 0.000, 0.000, 15:33:59.128, 1587846839128
21, 158.47, -195.45, 140.40, 14.55, 0.000, 0.000, 0.000, 15:33:59.143, 1587846839143
22, 146.99, -191.45, 119.56, 12.63, 0.000, 0.000, 0.000, 15:33:59.143, 1587846839143
23, 162.10, -195.86, 128.77, 18.83, 0.000, 0.000, 0.000, 15:33:59.150, 1587846839150
24, 168.30, -192.37, 130.33, 15.22, 0.000, 0.000, 0.000, 15:33:59.150, 1587846839150
25, 158.83, -204.32, 92.40, 11.59, 0.000, 0.000, 0.000, 15:33:59.158, 1587846839158
26, 163.97, -189.30, 123.51, 21.45, 0.000, 0.000, 0.000, 15:33:59.158, 1587846839158
27, 143.30, -210.97, 116.79, 21.26, 0.000, 0.000, 0.000, 15:33:59.174, 1587846839174
28, 135.85, -230.54, 101.99, 9.56, 0.000, 0.000, 0.000, 15:33:59.174, 1587846839174
29, 108.86, -218.23, 97.33, 17.20, 0.000, 0.000, 0.000, 15:33:59.174, 1587846839174
30, 139.08, -218.82, 101.36, 18.01, 0.000, 0.000, 0.000, 15:33:59.174, 1587846839174
31, 161.36, -213.39, 119.48, 13.64, 0.000, 0.000, 0.000, 15:33:59.188, 1587846839188
32, 153.16, -217.96, 106.07, 14.44, 0.000, 0.000, 0.000, 15:33:59.188, 1587846839188
33, 146.96, -226.59, 99.24, 23.77, 0.000, 0.000, 0.000, 15:33:59.204, 1587846839204
34, 136.81, -242.40, 96.09, 13.74, 0.000, 0.000, 0.000, 15:33:59.204, 1587846839204
35, 103.45, -270.85, 85.13, 15.70, 0.000, 0.000, 0.000, 15:33:59.204, 1587846839204
36, 113.10, -265.73, 93.89, 19.05, 0.000, 0.000, 0.000, 15:33:59.204, 1587846839204
37, 146.77, -234.23, 107.24, 18.98, 0.000, 0.000, 0.000, 15:33:59.217, 1587846839217
38, 121.34, -241.37, 107.03, 11.43, 0.000, 0.000, 0.000, 15:33:59.217, 1587846839217
39, 97.05, -258.70, 103.01, 15.60, 0.000, 0.000, 0.000, 15:33:59.234, 1587846839234
40, 119.75, -259.42, 102.97, 21.24, 0.000, 0.000, 0.000, 15:33:59.234, 1587846839234
41, 129.66, -267.26, 92.13, 9.15, 0.000, 0.000, 0.000, 15:33:59.235, 1587846839235
42, 112.19, -279.87, 98.77, 16.47, 0.000, 0.000, 0.000, 15:33:59.235, 1587846839235
43, 119.09, -259.62, 107.20, 21.35, 0.000, 0.000, 0.000, 15:33:59.248, 1587846839248
44, 122.63, -267.40, 103.66, 18.51, 0.000, 0.000, 0.000, 15:33:59.248, 1587846839248
45, 78.47, -304.68, 99.61, 11.88, 0.000, 0.000, 0.000, 15:33:59.264, 1587846839264
46, 133.55, -279.55, 107.06, 22.69, 0.000, 0.000, 0.000, 15:33:59.264, 1587846839264
47, 130.88, -251.57, 119.41, 17.47, 0.000, 0.000, 0.000, 15:33:59.266, 1587846839266
48, 118.90, -260.24, 108.71, 9.24, 0.000, 0.000, 0.000, 15:33:59.266, 1587846839266
49, 105.85, -278.40, 98.94, 18.48, 0.000, 0.000, 0.000, 15:33:59.278, 1587846839278
50, 113.52, -278.28, 110.07, 14.49, 0.000, 0.000, 0.000, 15:33:59.278, 1587846839278
51, 97.72, -293.87, 99.00, 8.16, 0.000, 0.000, 0.000, 15:33:59.293, 1587846839293
52, 86.57, -321.96, 90.31, 9.68, 0.000, 0.000, 0.000, 15:33:59.293, 1587846839293
53, 126.99, -263.47, 117.66, 20.76, 0.000, 0.000, 0.000, 15:33:59.295, 1587846839295
54, 131.62, -250.23, 122.52, 12.99, 0.000, 0.000, 0.000, 15:33:59.295, 1587846839295
55, 121.08, -274.30, 105.45, 16.97, 0.000, 0.000, 0.000, 15:33:59.308, 1587846839308
56, 112.03, -283.05, 100.07, 16.43, 0.000, 0.000, 0.000, 15:33:59.308, 1587846839308
57, 110.77, -283.17, 108.65, 17.28, 0.000, 0.000, 0.000, 15:33:59.340, 1587846839340
58, 111.34, -282.56, 104.81, 13.52, 0.000, 0.000, 0.000, 15:33:59.340, 1587846839340
59, 109.29, -275.39, 107.73, 20.28, 0.000, 0.000, 0.000, 15:33:59.341, 1587846839341
60, 125.60, -271.00, 112.83, 24.24, 0.000, 0.000, 0.000, 15:33:59.341, 1587846839341
61, 114.35, -280.76, 106.98, 10.86, 0.000, 0.000, 0.000, 15:33:59.342, 1587846839342
62, 110.30, -286.56, 97.49, 16.61, 0.000, 0.000, 0.000, 15:33:59.342, 1587846839342
63, 110.92, -279.33, 105.95, 21.18, 0.000, 0.000, 0.000, 15:33:59.342, 1587846839342
64, 126.36, -271.63, 110.26, 15.05, 0.000, 0.000, 0.000, 15:33:59.342, 1587846839342
65, 122.55, -281.03, 111.09, 18.83, 0.000, 0.000, 0.000, 15:33:59.353, 1587846839353
66, 120.40, -277.91, 108.81, 23.14, 0.000, 0.000, 0.000, 15:33:59.353, 1587846839353
67, 136.63, -267.75, 117.20, 16.48, 0.000, 0.000, 0.000, 15:33:59.368, 1587846839368
68, 133.21, -285.02, 114.17, 11.20, 0.000, 0.000, 0.000, 15:33:59.368, 1587846839368
69, 131.62, -270.17, 121.28, 12.55, 0.000, 0.000, 0.000, 15:33:59.383, 1587846839383
70, 142.02, -248.99, 124.05, 18.57, 0.000, 0.000, 0.000, 15:33:59.383, 1587846839383
71, 162.96, -249.67, 141.82, 12.55, 0.000, 0.000, 0.000, 15:33:59.398, 1587846839398
72, 167.52, -242.35, 134.02, 12.69, 0.000, 0.000, 0.000, 15:33:59.398, 1587846839398
73, 178.45, -216.96, 138.52, 23.14, 0.000, 0.000, 0.000, 15:33:59.399, 1587846839399
74, 201.83, -192.62, 147.72, 19.45, 0.000, 0.000, 0.000, 15:33:59.399, 1587846839399
75, 199.27, -191.88, 133.52, 18.19, 0.000, 0.000, 0.000, 15:33:59.413, 1587846839413
76, 200.10, -188.10, 133.86, 21.11, 0.000, 0.000, 0.000, 15:33:59.413, 1587846839413
77, 222.57, -175.74, 149.33, 20.79, 0.000, 0.000, 0.000, 15:33:59.414, 1587846839414
78, 204.81, -187.21, 129.42, 10.50, 0.000, 0.000, 0.000, 15:33:59.414, 1587846839414
79, 195.27, -204.15, 122.98, 15.23, 0.000, 0.000, 0.000, 15:33:59.428, 1587846839428
80, 204.40, -175.20, 127.12, 19.53, 0.000, 0.000, 0.000, 15:33:59.428, 1587846839428
81, 174.43, -187.19, 120.64, 14.28, 0.000, 0.000, 0.000, 15:33:59.444, 1587846839444
82, 182.62, -196.28, 104.84, 16.30, 0.000, 0.000, 0.000, 15:33:59.444, 1587846839444
83, 197.54, -189.04, 125.66, 20.55, 0.000, 0.000, 0.000, 15:33:59.445, 1587846839445
84, 192.53, -200.73, 121.74, 18.62, 0.000, 0.000, 0.000, 15:33:59.445, 1587846839445
85, 185.59, -207.19, 102.60, 16.66, 0.000, 0.000, 0.000, 15:33:59.458, 1587846839458
86, 173.55, -201.70, 110.36, 23.02, 0.000, 0.000, 0.000, 15:33:59.458, 1587846839458
87, 161.06, -200.85, 116.30, 15.25, 0.000, 0.000, 0.000, 15:33:59.473, 1587846839473
88, 153.84, -229.03, 101.44, 14.94, 0.000, 0.000, 0.000, 15:33:59.473, 1587846839473
89, 137.39, -216.07, 102.79, 18.99, 0.000, 0.000, 0.000, 15:33:59.474, 1587846839474
90, 155.92, -201.99, 103.63, 19.76, 0.000, 0.000, 0.000, 15:33:59.474, 1587846839474
91, 157.03, -227.30, 104.74, 13.64, 0.000, 0.000, 0.000, 15:33:59.488, 1587846839488
92, 151.06, -233.71, 96.25, 13.07, 0.000, 0.000, 0.000, 15:33:59.488, 1587846839488
93, 140.58, -229.75, 100.40, 20.18, 0.000, 0.000, 0.000, 15:33:59.503, 1587846839503
94, 150.57, -239.60, 99.96, 19.47, 0.000, 0.000, 0.000, 15:33:59.503, 1587846839503
95, 129.75, -253.36, 87.02, 9.56, 0.000, 0.000, 0.000, 15:33:59.504, 1587846839504
96, 119.74, -252.77, 75.03, 17.98, 0.000, 0.000, 0.000, 15:33:59.504, 1587846839504
97, 129.79, -239.97, 115.88, 19.70, 0.000, 0.000, 0.000, 15:33:59.518, 1587846839518
98, 131.76, -251.76, 89.46, 9.75, 0.000, 0.000, 0.000, 15:33:59.518, 1587846839518
99, 115.58, -243.19, 92.42, 17.71, 0.000, 0.000, 0.000, 15:33:59.534, 1587846839534
100, 136.82, -234.30, 96.70, 19.37, 0.000, 0.000, 0.000, 15:33:59.534, 1587846839534
101, 142.37, -254.42, 94.73, 13.21, 0.000, 0.000, 0.000, 15:33:59.534, 1587846839534
102, 125.74, -275.31, 80.00, 14.58, 0.000, 0.000, 0.000, 15:33:59.534, 1587846839534
103, 123.85, -272.04, 89.79, 19.89, 0.000, 0.000, 0.000, 15:33:59.548, 1587846839548
104, 122.74, -256.60, 94.32, 18.33, 0.000, 0.000, 0.000, 15:33:59.548, 1587846839548
105, 95.68, -277.03, 85.75, 12.79, 0.000, 0.000, 0.000, 15:33:59.564, 1587846839564
106, 124.04, -272.29, 93.15, 23.14, 0.000, 0.000, 0.000, 15:33:59.564, 1587846839564
107, 135.79, -269.62, 105.84, 17.74, 0.000, 0.000, 0.000, 15:33:59.564, 1587846839564
108, 122.73, -272.92, 97.79, 12.92, 0.000, 0.000, 0.000, 15:33:59.564, 1587846839564
109, 101.26, -303.45, 85.10, 15.71, 0.000, 0.000, 0.000, 15:33:59.578, 1587846839578
110, 117.07, -283.12, 103.66, 20.70, 0.000, 0.000, 0.000, 15:33:59.578, 1587846839578
111, 101.67, -273.69, 105.33, 15.75, 0.000, 0.000, 0.000, 15:33:59.594, 1587846839594
112, 98.48, -282.87, 98.82, 12.15, 0.000, 0.000, 0.000, 15:33:59.594, 1587846839594
113, 112.22, -285.93, 98.41, 18.70, 0.000, 0.000, 0.000, 15:33:59.594, 1587846839594
114, 117.80, -287.32, 99.73, 15.25, 0.000, 0.000, 0.000, 15:33:59.594, 1587846839594
115, 95.41, -280.07, 97.30, 13.28, 0.000, 0.000, 0.000, 15:33:59.608, 1587846839608
116, 115.71, -282.68, 104.29, 21.83, 0.000, 0.000, 0.000, 15:33:59.608, 1587846839608
117, 120.01, -290.76, 112.17, 20.78, 0.000, 0.000, 0.000, 15:33:59.624, 1587846839624
118, 103.54, -289.85, 94.04, 10.27, 0.000, 0.000, 0.000, 15:33:59.624, 1587846839624
119, 112.86, -284.41, 100.15, 19.21, 0.000, 0.000, 0.000, 15:33:59.625, 1587846839625
120, 111.57, -279.20, 110.66, 18.55, 0.000, 0.000, 0.000, 15:33:59.625, 1587846839625
121, 98.51, -286.93, 115.49, 12.78, 0.000, 0.000, 0.000, 15:33:59.638, 1587846839638
122, 99.57, -289.40, 97.61, 16.00, 0.000, 0.000, 0.000, 15:33:59.638, 1587846839638
123, 105.75, -288.11, 96.13, 18.48, 0.000, 0.000, 0.000, 15:33:59.654, 1587846839654
124, 116.29, -281.84, 113.08, 20.49, 0.000, 0.000, 0.000, 15:33:59.654, 1587846839654
125, 97.35, -291.53, 101.24, 13.84, 0.000, 0.000, 0.000, 15:33:59.659, 1587846839659
126, 111.77, -298.66, 91.45, 16.52, 0.000, 0.000, 0.000, 15:33:59.659, 1587846839659
127, 112.75, -280.02, 109.49, 17.97, 0.000, 0.000, 0.000, 15:33:59.668, 1587846839668
128, 109.87, -284.81, 107.95, 11.03, 0.000, 0.000, 0.000, 15:33:59.668, 1587846839668
129, 105.53, -287.06, 94.78, 18.93, 0.000, 0.000, 0.000, 15:33:59.684, 1587846839684
130, 104.81, -287.92, 106.15, 16.82, 0.000, 0.000, 0.000, 15:33:59.684, 1587846839684
131, 102.60, -284.35, 108.13, 10.21, 0.000, 0.000, 0.000, 15:33:59.685, 1587846839685
132, 94.02, -289.39, 98.26, 10.71, 0.000, 0.000, 0.000, 15:33:59.685, 1587846839685
133, 108.03, -274.85, 105.45, 18.37, 0.000, 0.000, 0.000, 15:33:59.698, 1587846839698
134, 133.99, -270.92, 111.09, 17.45, 0.000, 0.000, 0.000, 15:33:59.698, 1587846839698
135, 108.72, -292.59, 96.53, 16.59, 0.000, 0.000, 0.000, 15:33:59.713, 1587846839713
136, 110.67, -290.79, 96.62, 13.30, 0.000, 0.000, 0.000, 15:33:59.713, 1587846839713
137, 127.74, -267.87, 120.48, 21.60, 0.000, 0.000, 0.000, 15:33:59.714, 1587846839714
138, 112.19, -285.34, 104.34, 12.04, 0.000, 0.000, 0.000, 15:33:59.714, 1587846839714
139, 93.47, -295.04, 100.72, 16.48, 0.000, 0.000, 0.000, 15:33:59.728, 1587846839728
140, 123.98, -265.51, 110.23, 17.24, 0.000, 0.000, 0.000, 15:33:59.728, 1587846839728
141, 128.32, -275.94, 98.79, 14.85, 0.000, 0.000, 0.000, 15:33:59.743, 1587846839743
142, 120.67, -292.88, 95.70, 11.29, 0.000, 0.000, 0.000, 15:33:59.743, 1587846839743
143, 118.86, -260.70, 108.78, 19.19, 0.000, 0.000, 0.000, 15:33:59.748, 1587846839748
144, 132.02, -255.28, 112.59, 15.54, 0.000, 0.000, 0.000, 15:33:59.748, 1587846839748
145, 114.46, -289.05, 93.77, 11.59, 0.000, 0.000, 0.000, 15:33:59.758, 1587846839758
146, 124.99, -273.32, 96.01, 19.64, 0.000, 0.000, 0.000, 15:33:59.758, 1587846839758
147, 123.44, -271.18, 108.02, 20.53, 0.000, 0.000, 0.000, 15:33:59.774, 1587846839774
148, 121.28, -282.57, 98.17, 7.41, 0.000, 0.000, 0.000, 15:33:59.774, 1587846839774
149, 115.01, -282.44, 103.69, 15.55, 0.000, 0.000, 0.000, 15:33:59.774, 1587846839774
150, 118.56, -274.22, 111.92, 24.57, 0.000, 0.000, 0.000, 15:33:59.774, 1587846839774
151, 135.35, -279.40, 113.56, 11.70, 0.000, 0.000, 0.000, 15:33:59.788, 1587846839788
152, 119.16, -288.05, 98.89, 19.34, 0.000, 0.000, 0.000, 15:33:59.788, 1587846839788
153, 112.83, -270.38, 108.95, 20.98, 0.000, 0.000, 0.000, 15:33:59.803, 1587846839803
154, 131.66, -256.82, 123.09, 19.17, 0.000, 0.000, 0.000, 15:33:59.803, 1587846839803
155, 118.34, -272.65, 111.68, 18.65, 0.000, 0.000, 0.000, 15:33:59.804, 1587846839804
156, 109.67, -277.52, 111.14, 21.85, 0.000, 0.000, 0.000, 15:33:59.804, 1587846839804
157, 121.67, -270.40, 109.95, 18.41, 0.000, 0.000, 0.000, 15:33:59.817, 1587846839817
158, 129.29, -277.21, 110.26, 10.83, 0.000, 0.000, 0.000, 15:33:59.817, 1587846839817
159, 105.61, -282.51, 97.27, 17.13, 0.000, 0.000, 0.000, 15:33:59.834, 1587846839834
160, 126.94, -268.12, 112.92, 20.77, 0.000, 0.000, 0.000, 15:33:59.834, 1587846839834
161, 121.12, -268.50, 113.96, 13.24, 0.000, 0.000, 0.000, 15:33:59.834, 1587846839834
162, 103.90, -278.41, 96.36, 14.35, 0.000, 0.000, 0.000, 15:33:59.834, 1587846839834
163, 120.92, -270.42, 109.69, 18.58, 0.000, 0.000, 0.000, 15:33:59.848, 1587846839848
164, 128.53, -274.82, 113.85, 15.67, 0.000, 0.000, 0.000, 15:33:59.848, 1587846839848
165, 110.71, -288.11, 99.08, 11.53, 0.000, 0.000, 0.000, 15:33:59.865, 1587846839865
166, 113.42, -279.48, 102.60, 16.32, 0.000, 0.000, 0.000, 15:33:59.865, 1587846839865
167, 131.09, -256.16, 111.14, 16.10, 0.000, 0.000, 0.000, 15:33:59.866, 1587846839866
168, 126.67, -277.16, 102.15, 9.38, 0.000, 0.000, 0.000, 15:33:59.866, 1587846839866
169, 107.42, -285.27, 104.18, 18.75, 0.000, 0.000, 0.000, 15:33:59.895, 1587846839895
170, 122.98, -254.18, 118.31, 20.36, 0.000, 0.000, 0.000, 15:33:59.895, 1587846839895
171, 126.23, -266.69, 108.08, 14.39, 0.000, 0.000, 0.000, 15:33:59.896, 1587846839896
172, 111.73, -273.64, 99.90, 15.88, 0.000, 0.000, 0.000, 15:33:59.896, 1587846839896
173, 126.51, -262.55, 115.45, 18.81, 0.000, 0.000, 0.000, 15:33:59.896, 1587846839896
174, 139.00, -266.06, 113.13, 18.58, 0.000, 0.000, 0.000, 15:33:59.896, 1587846839896
175, 120.81, -279.30, 98.48, 13.13, 0.000, 0.000, 0.000, 15:33:59.908, 1587846839908
176, 121.19, -272.01, 93.48, 15.24, 0.000, 0.000, 0.000, 15:33:59.908, 1587846839908
177, 133.76, -270.28, 111.15, 18.41, 0.000, 0.000, 0.000, 15:33:59.924, 1587846839924
178, 117.85, -268.41, 109.13, 5.85, 0.000, 0.000, 0.000, 15:33:59.924, 1587846839924
179, 116.82, -263.72, 106.98, 15.64, 0.000, 0.000, 0.000, 15:33:59.925, 1587846839925
180, 120.43, -258.66, 121.15, 16.98, 0.000, 0.000, 0.000, 15:33:59.925, 1587846839925
181, 134.97, -260.74, 111.50, 11.21, 0.000, 0.000, 0.000, 15:33:59.970, 1587846839970
182, 128.09, -284.92, 99.89, 7.88, 0.000, 0.000, 0.000, 15:33:59.970, 1587846839970
183, 124.46, -264.61, 109.42, 18.29, 0.000, 0.000, 0.000, 15:33:59.971, 1587846839971
184, 129.53, -259.91, 116.82, 14.33, 0.000, 0.000, 0.000, 15:33:59.971, 1587846839971
185, 119.41, -274.04, 101.47, 16.08, 0.000, 0.000, 0.000, 15:33:59.972, 1587846839972
186, 134.62, -271.00, 109.34, 17.24, 0.000, 0.000, 0.000, 15:33:59.972, 1587846839972
187, 137.29, -259.94, 113.74, 18.68, 0.000, 0.000, 0.000, 15:33:59.973, 1587846839973
188, 119.74, -268.29, 113.15, 13.83, 0.000, 0.000, 0.000, 15:33:59.973, 1587846839973
189, 107.41, -275.40, 101.58, 20.41, 0.000, 0.000, 0.000, 15:33:59.984, 1587846839984
190, 139.16, -264.34, 107.76, 21.65, 0.000, 0.000, 0.000, 15:33:59.984, 1587846839984
191, 140.85, -269.80, 110.81, 11.53, 0.000, 0.000, 0.000, 15:33:59.984, 1587846839984
192, 114.45, -280.46, 92.48, 16.36, 0.000, 0.000, 0.000, 15:33:59.984, 1587846839984
193, 133.14, -258.34, 92.97, 16.66, 0.000, 0.000, 0.000, 15:33:59.998, 1587846839998
194, 131.70, -259.68, 108.37, 14.76, 0.000, 0.000, 0.000, 15:33:59.998, 1587846839998
195, 123.93, -262.63, 100.03, 11.65, 0.000, 0.000, 0.000, 15:34:00.014, 1587846840014
196, 124.69, -285.00, 101.21, 24.20, 0.000, 0.000, 0.000, 15:34:00.014, 1587846840014
197, 135.35, -264.25, 115.28, 15.16, 0.000, 0.000, 0.000, 15:34:00.015, 1587846840015
198, 130.82, -268.73, 112.51, 6.60, 0.000, 0.000, 0.000, 15:34:00.015, 1587846840015
199, 125.42, -267.90, 98.76, 18.58, 0.000, 0.000, 0.000, 15:34:00.028, 1587846840028
200, 122.95, -260.61, 108.77, 18.52, 0.000, 0.000, 0.000, 15:34:00.028, 1587846840028
0, 123.39, -268.67, 104.26, 8.94, 0.000, 0.000, 0.000, 15:34:00.030, 1587846840030
1, 121.38, -275.14, 90.11, 10.98, 0.000, 0.000, 0.000, 15:34:00.044, 1587846840044
2, 133.58, -274.28, 110.36, 20.33, 0.000, 0.000, 0.000, 15:34:00.044, 1587846840044
3, 129.97, -264.51, 113.52, 14.15, 0.000, 0.000, 0.000, 15:34:00.059, 1587846840059
4, 119.49, -282.81, 100.86, 10.20, 0.000, 0.000, 0.000, 15:34:00.059, 1587846840059
5, 128.74, -274.34, 112.28, 17.69, 0.000, 0.000, 0.000, 15:34:00.062, 1587846840062
6, 135.21, -259.32, 118.42, 21.05, 0.000, 0.000, 0.000, 15:34:00.062, 1587846840062
7, 130.92, -269.61, 110.94, 9.45, 0.000, 0.000, 0.000, 15:34:00.073, 1587846840073
8, 127.43, -273.47, 97.43, 16.74, 0.000, 0.000, 0.000, 15:34:00.073, 1587846840073
9, 131.81, -263.82, 103.75, 22.36, 0.000, 0.000, 0.000, 15:34:00.089, 1587846840089
10, 134.01, -264.21, 101.81, 11.11, 0.000, 0.000, 0.000, 15:34:00.089, 1587846840089
11, 144.62, -269.36, 99.34, 12.07, 0.000, 0.000, 0.000, 15:34:00.090, 1587846840090
12, 130.41, -269.20, 110.13, 20.35, 0.000, 0.000, 0.000, 15:34:00.090, 1587846840090
13, 131.79, -258.28, 108.51, 12.43, 0.000, 0.000, 0.000, 15:34:00.103, 1587846840103
14, 125.51, -279.78, 104.14, 11.63, 0.000, 0.000, 0.000, 15:34:00.103, 1587846840103
15, 124.74, -266.40, 98.26, 15.14, 0.000, 0.000, 0.000, 15:34:00.119, 1587846840119
16, 152.68, -253.53, 113.65, 20.86, 0.000, 0.000, 0.000, 15:34:00.119, 1587846840119
17, 129.51, -269.76, 104.24, 11.90, 0.000, 0.000, 0.000, 15:34:00.119, 1587846840119
18, 126.28, -276.77, 96.55, 16.49, 0.000, 0.000, 0.000, 15:34:00.119, 1587846840119
19, 134.69, -265.30, 114.36, 19.89, 0.000, 0.000, 0.000, 15:34:00.133, 1587846840133
20, 144.23, -271.48, 109.78, 15.16, 0.000, 0.000, 0.000, 15:34:00.133, 1587846840133
21, 123.57, -273.16, 104.17, 15.09, 0.000, 0.000, 0.000, 15:34:00.149, 1587846840149
22, 118.70, -274.74, 109.37, 19.03, 0.000, 0.000, 0.000, 15:34:00.149, 1587846840149
23, 136.23, -253.94, 119.79, 16.47, 0.000, 0.000, 0.000, 15:34:00.150, 1587846840150
24, 126.75, -264.95, 106.06, 11.95, 0.000, 0.000, 0.000, 15:34:00.150, 1587846840150
25, 121.62, -269.93, 97.65, 24.79, 0.000, 0.000, 0.000, 15:34:00.162, 1587846840162
26, 129.48, -258.16, 116.23, 20.66, 0.000, 0.000, 0.000, 15:34:00.162, 1587846840162
27, 144.02, -268.85, 112.28, 12.37, 0.000, 0.000, 0.000, 15:34:00.178, 1587846840178
28, 129.65, -276.01, 104.61, 11.98, 0.000, 0.000, 0.000, 15:34:00.178, 1587846840178
29, 142.90, -255.40, 119.61, 24.04, 0.000, 0.000, 0.000, 15:34:00.180, 1587846840180
30, 140.90, -267.26, 107.13, 14.54, 0.000, 0.000, 0.000, 15:34:00.180, 1587846840180
31, 137.84, -274.45, 100.40, 14.42, 0.000, 0.000, 0.000, 15:34:00.193, 1587846840193
32, 145.53, -254.89, 109.18, 23.70, 0.000, 0.000, 0.000, 15:34:00.193, 1587846840193
33, 145.13, -262.14, 108.14, 20.89, 0.000, 0.000, 0.000, 15:34:00.209, 1587846840209
34, 125.42, -280.33, 104.26, 14.22, 0.000, 0.000, 0.000, 15:34:00.209, 1587846840209
35, 137.29, -255.88, 109.47, 19.90, 0.000, 0.000, 0.000, 15:34:00.212, 1587846840212
36, 147.32, -254.87, 113.51, 17.02, 0.000, 0.000, 0.000, 15:34:00.212, 1587846840212
37, 129.29, -264.53, 108.21, 13.11, 0.000, 0.000, 0.000, 15:34:00.222, 1587846840222
38, 130.34, -271.11, 112.13, 17.48, 0.000, 0.000, 0.000, 15:34:00.222, 1587846840222
39, 139.93, -260.59, 113.74, 22.35, 0.000, 0.000, 0.000, 15:34:00.239, 1587846840239
40, 143.40, -262.64, 107.16, 16.67, 0.000, 0.000, 0.000, 15:34:00.239, 1587846840239
41, 129.82, -276.83, 99.96, 14.28, 0.000, 0.000, 0.000, 15:34:00.241, 1587846840241
42, 146.48, -266.51, 109.13, 25.76, 0.000, 0.000, 0.000, 15:34:00.241, 1587846840241
43, 143.48, -254.56, 113.27, 15.20, 0.000, 0.000, 0.000, 15:34:00.253, 1587846840253
44, 133.35, -257.83, 113.06, 11.58, 0.000, 0.000, 0.000, 15:34:00.253, 1587846840253
45, 131.71, -258.50, 103.65, 21.18, 0.000, 0.000, 0.000, 15:34:00.269, 1587846840269
46, 131.74, -260.48, 116.36, 21.11, 0.000, 0.000, 0.000, 15:34:00.269, 1587846840269
47, 131.64, -263.21, 110.51, 9.08, 0.000, 0.000, 0.000, 15:34:00.269, 1587846840269
48, 133.85, -271.47, 102.79, 14.01, 0.000, 0.000, 0.000, 15:34:00.269, 1587846840269
49, 143.35, -268.60, 116.34, 19.21, 0.000, 0.000, 0.000, 15:34:00.283, 1587846840283
50, 139.19, -262.48, 111.94, 12.02, 0.000, 0.000, 0.000, 15:34:00.283, 1587846840283
51, 114.03, -273.09, 97.37, 13.67, 0.000, 0.000, 0.000, 15:34:00.298, 1587846840298
52, 132.75, -257.28, 111.22, 21.42, 0.000, 0.000, 0.000, 15:34:00.298, 1587846840298
53, 138.05, -253.00, 116.62, 17.36, 0.000, 0.000, 0.000, 15:34:00.299, 1587846840299
54, 132.97, -269.32, 106.27, 12.73, 0.000, 0.000, 0.000, 15:34:00.299, 1587846840299
55, 124.58, -262.63, 106.83, 18.29, 0.000, 0.000, 0.000, 15:34:00.313, 1587846840313
56, 149.87, -250.30, 120.66, 21.08, 0.000, 0.000, 0.000, 15:34:00.313, 1587846840313
57, 136.35, -265.85, 104.66, 13.25, 0.000, 0.000, 0.000, 15:34:00.328, 1587846840328
58, 135.18, -269.02, 101.11, 20.44, 0.000, 0.000, 0.000, 15:34:00.328, 1587846840328
59, 140.03, -257.02, 113.12, 20.46, 0.000, 0.000, 0.000, 15:34:00.330, 1587846840330
60, 131.26, -270.36, 110.60, 14.23, 0.000, 0.000, 0.000, 15:34:00.330, 1587846840330
61, 123.17, -273.48, 106.77, 14.93, 0.000, 0.000, 0.000, 15:34:00.343, 1587846840343
62, 136.90, -251.21, 111.01, 21.52, 0.000, 0.000, 0.000, 15:34:00.343, 1587846840343
63, 139.37, -252.77, 118.04, 19.86, 0.000, 0.000, 0.000, 15:34:00.358, 1587846840358
64, 127.95, -263.96, 105.21, 8.99, 0.000, 0.000, 0.000, 15:34:00.358, 1587846840358
65, 130.83, -256.71, 110.86, 15.81, 0.000, 0.000, 0.000, 15:34:00.360, 1587846840360
66, 137.78, -255.63, 123.12, 17.66, 0.000, 0.000, 0.000, 15:34:00.360, 1587846840360
67, 131.63, -257.56, 121.77, 11.35, 0.000, 0.000, 0.000, 15:34:00.373, 1587846840373
68, 132.07, -276.31, 113.36, 20.14, 0.000, 0.000, 0.000, 15:34:00.373, 1587846840373
69, 132.78, -259.32, 120.74, 21.87, 0.000, 0.000, 0.000, 15:34:00.389, 1587846840389
70, 139.34, -240.32, 120.80, 10.92, 0.000, 0.000, 0.000, 15:34:00.389, 1587846840389
71, 133.47, -256.96, 106.37, 16.55, 0.000, 0.000, 0.000, 15:34:00.389, 1587846840389
72, 131.51, -256.72, 115.98, 22.81, 0.000, 0.000, 0.000, 15:34:00.389, 1587846840389
73, 142.48, -252.49, 116.29, 16.73, 0.000, 0.000, 0.000, 15:34:00.403, 1587846840403
74, 128.54, -264.20, 110.81, 15.24, 0.000, 0.000, 0.000, 15:34:00.403, 1587846840403
75, 132.45, -263.45, 111.27, 19.65, 0.000, 0.000, 0.000, 15:34:00.420, 1587846840420
76, 132.19, -261.85, 119.79, 17.61, 0.000, 0.000, 0.000, 15:34:00.420, 1587846840420
77, 129.93, -256.58, 116.23, 9.29, 0.000, 0.000, 0.000, 15:34:00.421, 1587846840421
78, 129.99, -255.64, 107.69, 16.73, 0.000, 0.000, 0.000, 15:34:00.421, 1587846840421
79, 144.90, -255.75, 116.66, 22.58, 0.000, 0.000, 0.000, 15:34:00.449, 1587846840449
80, 137.45, -247.08, 120.46, 14.48, 0.000, 0.000, 0.000, 15:34:00.449, 1587846840449
81, 115.91, -277.97, 106.85, 12.73, 0.000, 0.000, 0.000, 15:34:00.450, 1587846840450
82, 126.98, -271.86, 116.25, 22.81, 0.000, 0.000, 0.000, 15:34:00.450, 1587846840450
83, 136.37, -266.10, 118.03, 13.31, 0.000, 0.000, 0.000, 15:34:00.451, 1587846840451
84, 117.43, -249.63, 104.45, 13.22, 0.000, 0.000, 0.000, 15:34:00.451, 1587846840451
85, 124.48, -252.77, 106.12, 18.41, 0.000, 0.000, 0.000, 15:34:00.462, 1587846840462
86, 139.27, -241.43, 115.51, 17.05, 0.000, 0.000, 0.000, 15:34:00.462, 1587846840462
87, 128.09, -253.64, 117.24, 13.66, 0.000, 0.000, 0.000, 15:34:00.479, 1587846840479
88, 133.93, -266.39, 108.64, 13.17, 0.000, 0.000, 0.000, 15:34:00.479, 1587846840479
89, 134.90, -263.02, 117.44, 18.84, 0.000, 0.000, 0.000, 15:34:00.479, 1587846840479
90, 133.06, -258.48, 125.43, 11.83, 0.000, 0.000, 0.000, 15:34:00.479, 1587846840479
91, 123.69, -266.85, 109.81, 12.06, 0.000, 0.000, 0.000, 15:34:00.494, 1587846840494
92, 129.52, -264.62, 115.75, 19.92, 0.000, 0.000, 0.000, 15:34:00.494, 1587846840494
93, 137.96, -253.17, 121.53, 15.15, 0.000, 0.000, 0.000, 15:34:00.526, 1587846840526
94, 131.89, -257.28, 110.19, 9.58, 0.000, 0.000, 0.000, 15:34:00.526, 1587846840526
95, 135.43, -255.37, 105.55, 21.91, 0.000, 0.000, 0.000, 15:34:00.526, 1587846840526
96, 132.69, -251.39, 124.32, 26.10, 0.000, 0.000, 0.000, 15:34:00.526, 1587846840526
97, 130.45, -268.68, 117.59, 16.26, 0.000, 0.000, 0.000, 15:34:00.527, 1587846840527
98, 127.24, -262.80, 102.83, 16.14, 0.000, 0.000, 0.000, 15:34:00.527, 1587846840527
99, 137.46, -259.25, 113.24, 27.25, 0.000, 0.000, 0.000, 15:34:00.528, 1587846840528
100, 139.60, -246.87, 116.31, 13.55, 0.000, 0.000, 0.000, 15:34:00.528, 1587846840528
101, 131.62, -267.39, 105.60, 16.53, 0.000, 0.000, 0.000, 15:34:00.538, 1587846840538
102, 128.60, -261.46, 110.80, 20.63, 0.000, 0.000, 0.000, 15:34:00.538, 1587846840538
103, 120.86, -261.40, 118.33, 14.03, 0.000, 0.000, 0.000, 15:34:00.553, 1587846840553
104, 125.74, -252.83, 114.94, 14.56, 0.000, 0.000, 0.000, 15:34:00.553, 1587846840553
105, 141.64, -260.03, 115.87, 18.60, 0.000, 0.000, 0.000, 15:34:00.569, 1587846840569
106, 142.97, -266.40, 116.94, 21.23, 0.000, 0.000, 0.000, 15:34:00.569, 1587846840569
107, 130.44, -271.82, 111.75, 13.75, 0.000, 0.000, 0.000, 15:34:00.571, 1587846840571
108, 120.08, -263.23, 106.39, 19.15, 0.000, 0.000, 0.000, 15:34:00.571, 1587846840571
109, 137.01, -253.01, 118.10, 20.14, 0.000, 0.000, 0.000, 15:34:00.583, 1587846840583
110, 138.66, -264.07, 116.04, 10.18, 0.000, 0.000, 0.000, 15:34:00.583, 1587846840583
111, 124.34, -266.77, 105.55, 14.57, 0.000, 0.000, 0.000, 15:34:00.599, 1587846840599
112, 135.51, -254.92, 113.31, 16.99, 0.000, 0.000, 0.000, 15:34:00.599, 1587846840599
113, 140.08, -261.44, 114.31, 18.98, 0.000, 0.000, 0.000, 15:34:00.600, 1587846840600
114, 127.74, -272.64, 112.19, 12.25, 0.000, 0.000, 0.000, 15:34:00.600, 1587846840600
115, 139.60, -257.51, 114.85, 22.53, 0.000, 0.000, 0.000, 15:34:00.613, 1587846840613
116, 137.97, -253.92, 127.40, 12.48, 0.000, 0.000, 0.000, 15:34:00.613, 1587846840613
117, 116.68, -269.22, 115.79, 12.01, 0.000, 0.000, 0.000, 15:34:00.628, 1587846840628
118, 126.39, -278.08, 98.66, 15.07, 0.000, 0.000, 0.000, 15:34:00.628, 1587846840628
119, 136.00, -255.72, 120.28, 21.10, 0.000, 0.000, 0.000, 15:34:00.636, 1587846840636
120, 143.83, -249.84, 123.86, 9.72, 0.000, 0.000, 0.000, 15:34:00.636, 1587846840636
121, 124.74, -274.86, 99.06, 14.43, 0.000, 0.000, 0.000, 15:34:00.646, 1587846840646
122, 136.08, -262.75, 117.18, 22.85, 0.000, 0.000, 0.000, 15:34:00.646, 1587846840646
123, 134.85, -252.11, 118.39, 17.71, 0.000, 0.000, 0.000, 15:34:00.659, 1587846840659
124, 131.10, -267.89, 109.41, 12.93, 0.000, 0.000, 0.000, 15:34:00.659, 1587846840659
125, 143.33, -262.59, 110.35, 20.96, 0.000, 0.000, 0.000, 15:34:00.659, 1587846840659
126, 134.49, -253.91, 116.16, 21.00, 0.000, 0.000, 0.000, 15:34:00.659, 1587846840659
127, 133.98, -266.47, 111.45, 15.52, 0.000, 0.000, 0.000, 15:34:00.673, 1587846840673
128, 118.07, -276.55, 109.20, 14.92, 0.000, 0.000, 0.000, 15:34:00.673, 1587846840673
129, 141.81, -266.28, 113.78, 16.78, 0.000, 0.000, 0.000, 15:34:00.688, 1587846840688
130, 130.88, -262.21, 112.25, 12.35, 0.000, 0.000, 0.000, 15:34:00.688, 1587846840688
131, 111.42, -271.61, 105.95, 10.90, 0.000, 0.000, 0.000, 15:34:00.690, 1587846840690
132, 131.97, -266.94, 114.91, 19.09, 0.000, 0.000, 0.000, 15:34:00.690, 1587846840690
133, 129.63, -279.46, 112.45, 15.42, 0.000, 0.000, 0.000, 15:34:00.702, 1587846840702
134, 129.62, -277.71, 97.41, 14.48, 0.000, 0.000, 0.000, 15:34:00.702, 1587846840702
135, 134.39, -256.97, 107.54, 16.30, 0.000, 0.000, 0.000, 15:34:00.719, 1587846840719
136, 127.84, -256.48, 121.30, 16.90, 0.000, 0.000, 0.000, 15:34:00.719, 1587846840719
137, 135.31, -268.23, 110.85, 13.21, 0.000, 0.000, 0.000, 15:34:00.719, 1587846840719
138, 131.84, -273.05, 103.67, 13.38, 0.000, 0.000, 0.000, 15:34:00.719, 1587846840719
139, 136.43, -252.20, 117.34, 15.45, 0.000, 0.000, 0.000, 15:34:00.733, 1587846840733
140, 131.24, -267.93, 117.62, 15.00, 0.000, 0.000, 0.000, 15:34:00.733, 1587846840733
141, 117.95, -274.05, 106.98, 11.63, 0.000, 0.000, 0.000, 15:34:00.749, 1587846840749
142, 119.10, -266.69, 110.70, 20.22, 0.000, 0.000, 0.000, 15:34:00.749, 1587846840749
143, 142.71, -268.37, 110.13, 12.96, 0.000, 0.000, 0.000, 15:34:00.749, 1587846840749
144, 130.56, -266.94, 107.82, 13.05, 0.000, 0.000, 0.000, 15:34:00.749, 1587846840749
145, 133.41, -269.47, 107.91, 20.78, 0.000, 0.000, 0.000, 15:34:00.765, 1587846840765
146, 146.47, -259.40, 128.32, 18.19, 0.000, 0.000, 0.000, 15:34:00.765, 1587846840765
147, 136.25, -254.19, 116.83, 11.41, 0.000, 0.000, 0.000, 15:34:00.778, 1587846840778
148, 123.41, -270.60, 105.14, 16.06, 0.000, 0.000, 0.000, 15:34:00.778, 1587846840778
149, 130.96, -259.08, 118.87, 21.32, 0.000, 0.000, 0.000, 15:34:00.779, 1587846840779
150, 121.19, -278.90, 101.89, 12.18, 0.000, 0.000, 0.000, 15:34:00.779, 1587846840779
151, 136.48, -279.84, 105.11, 16.82, 0.000, 0.000, 0.000, 15:34:00.794, 1587846840794
152, 131.27, -257.17, 112.97, 22.12, 0.000, 0.000, 0.000, 15:34:00.794, 1587846840794
153, 139.97, -258.57, 127.16, 11.21, 0.000, 0.000, 0.000, 15:34:00.809, 1587846840809
154, 124.02, -271.92, 106.09, 10.05, 0.000, 0.000, 0.000, 15:34:00.809, 1587846840809
155, 135.17, -265.11, 106.21, 16.93, 0.000, 0.000, 0.000, 15:34:00.809, 1587846840809
156, 144.57, -264.65, 118.01, 14.82, 0.000, 0.000, 0.000, 15:34:00.809, 1587846840809
157, 122.27, -268.43, 106.07, 12.43, 0.000, 0.000, 0.000, 15:34:00.822, 1587846840822
158, 128.35, -271.09, 102.68, 19.28, 0.000, 0.000, 0.000, 15:34:00.822, 1587846840822
159, 118.33, -274.74, 112.20, 22.99, 0.000, 0.000, 0.000, 15:34:00.839, 1587846840839
160, 145.57, -245.99, 118.72, 8.90, 0.000, 0.000, 0.000, 15:34:00.839, 1587846840839
161, 134.87, -261.60, 103.74, 13.75, 0.000, 0.000, 0.000, 15:34:00.839, 1587846840839
162, 144.26, -267.59, 110.66, 17.82, 0.000, 0.000, 0.000, 15:34:00.839, 1587846840839
163, 149.21, -266.67, 111.89, 14.97, 0.000, 0.000, 0.000, 15:34:00.853, 1587846840853
164, 131.55, -268.60, 111.89, 12.23, 0.000, 0.000, 0.000, 15:34:00.853, 1587846840853
165, 131.16, -251.70, 125.34, 21.98, 0.000, 0.000, 0.000, 15:34:00.869, 1587846840869
166, 134.75, -250.98, 121.43, 20.35, 0.000, 0.000, 0.000, 15:34:00.869, 1587846840869
167, 128.88, -257.69, 120.84, 9.22, 0.000, 0.000, 0.000, 15:34:00.870, 1587846840870
168, 110.52, -291.46, 111.54, 10.15, 0.000, 0.000, 0.000, 15:34:00.870, 1587846840870
169, 117.92, -289.15, 124.15, 20.22, 0.000, 0.000, 0.000, 15:34:00.883, 1587846840883
170, 142.79, -232.27, 139.24, 20.17, 0.000, 0.000, 0.000, 15:34:00.883, 1587846840883
171, 129.44, -242.17, 122.92, 12.93, 0.000, 0.000, 0.000, 15:34:00.898, 1587846840898
172, 121.40, -251.32, 125.91, 16.65, 0.000, 0.000, 0.000, 15:34:00.898, 1587846840898
173, 120.05, -263.44, 115.74, 13.03, 0.000, 0.000, 0.000, 15:34:00.899, 1587846840899
174, 121.27, -281.26, 113.07, 14.31, 0.000, 0.000, 0.000, 15:34:00.899, 1587846840899
175, 110.85, -287.61, 131.20, 18.55, 0.000, 0.000, 0.000, 15:34:00.912, 1587846840912
176, 145.15, -232.88, 130.84, 16.06, 0.000, 0.000, 0.000, 15:34:00.912, 1587846840912
177, 135.58, -252.16, 106.58, 9.82, 0.000, 0.000, 0.000, 15:34:00.928, 1587846840928
178, 123.35, -271.01, 111.92, 12.78, 0.000, 0.000, 0.000, 15:34:00.928, 1587846840928
179, 120.47, -295.97, 131.83, 23.39, 0.000, 0.000, 0.000, 15:34:00.930, 1587846840930
180, 140.36, -266.61, 140.84, 9.13, 0.000, 0.000, 0.000, 15:34:00.930, 1587846840930
181, 130.57, -268.64, 126.95, 11.30, 0.000, 0.000, 0.000, 15:34:00.943, 1587846840943
182, 144.01, -267.64, 124.89, 20.77, 0.000, 0.000, 0.000, 15:34:00.943, 1587846840943
183, 142.25, -259.78, 130.37, 16.78, 0.000, 0.000, 0.000, 15:34:00.958, 1587846840958
184, 144.36, -255.95, 123.66, 11.43, 0.000, 0.000, 0.000, 15:34:00.958, 1587846840958
185, 140.78, -239.42, 142.63, 20.05, 0.000, 0.000, 0.000, 15:34:00.959, 1587846840959
186, 163.10, -215.58, 145.21, 17.01, 0.000, 0.000, 0.000, 15:34:00.959, 1587846840959
187, 170.35, -232.47, 143.39, 13.65, 0.000, 0.000, 0.000, 15:34:00.973, 1587846840973
188, 175.47, -238.30, 156.22, 18.90, 0.000, 0.000, 0.000, 15:34:00.973, 1587846840973
189, 207.96, -160.94, 176.02, 21.60, 0.000, 0.000, 0.000, 15:34:01.005, 1587846841005
190, 220.84, -159.78, 162.14, 15.17, 0.000, 0.000, 0.000, 15:34:01.005, 1587846841005
191, 203.77, -167.73, 144.50, 13.78, 0.000, 0.000, 0.000, 15:34:01.006, 1587846841006
192, 224.47, -179.16, 145.42, 17.38, 0.000, 0.000, 0.000, 15:34:01.006, 1587846841006
193, 216.65, -171.01, 156.24, 17.25, 0.000, 0.000, 0.000, 15:34:01.007, 1587846841007
194, 205.91, -165.72, 160.58, 11.45, 0.000, 0.000, 0.000, 15:34:01.007, 1587846841007
195, 216.19, -166.47, 148.08, 23.39, 0.000, 0.000, 0.000, 15:34:01.007, 1587846841007
196, 223.84, -148.35, 146.56, 20.66, 0.000, 0.000, 0.000, 15:34:01.007, 1587846841007
197, 213.65, -175.09, 138.82, 8.91, 0.000, 0.000, 0.000, 15:34:01.018, 1587846841018
198, 191.99, -178.64, 127.46, 16.52, 0.000, 0.000, 0.000, 15:34:01.018, 1587846841018
199, 213.48, -153.58, 149.94, 25.49, 0.000, 0.000, 0.000, 15:34:01.034, 1587846841034
200, 213.39, -183.04, 136.93, 17.08, 0.000, 0.000, 0.000, 15:34:01.034, 1587846841034
