%OpenBCI Raw EEG Data
%Number of channels = 4
%Sample Rate = 200.0 Hz
%First Column = SampleIndex
%Last Column = Timestamp 
%Other Columns = EEG data in microvolts followed by Accel Data (in G) interleaved with Aux Data
0, 153.71, -217.20, 133.82, 17.20, 0.000, 0.000, 0.000, 15:43:38.949, 1587847418949
1, 97.06, -267.22, 84.70, 0.92, 0.000, 0.000, 0.000, 15:43:38.964, 1587847418964
2, 131.40, -245.33, 106.53, 24.51, 0.000, 0.000, 0.000, 15:43:38.964, 1587847418964
3, 157.23, -217.32, 136.48, 22.98, 0.000, 0.000, 0.000, 15:43:38.976, 1587847418976
4, 141.67, -238.72, 116.97, 3.18, 0.000, 0.000, 0.000, 15:43:38.976, 1587847418976
5, 124.22, -251.41, 106.79, 14.62, 0.000, 0.000, 0.000, 15:43:38.977, 1587847418977
6, 155.62, -223.75, 128.76, 30.31, 0.000, 0.000, 0.000, 15:43:38.977, 1587847418977
7, 137.91, -246.44, 105.69, 6.52, 0.000, 0.000, 0.000, 15:43:38.991, 1587847418991
8, 112.60, -258.02, 90.45, 8.21, 0.000, 0.000, 0.000, 15:43:38.991, 1587847418991
9, 145.56, -243.75, 110.37, 29.08, 0.000, 0.000, 0.000, 15:43:39.006, 1587847419006
10, 155.07, -222.97, 131.25, 18.36, 0.000, 0.000, 0.000, 15:43:39.006, 1587847419006
11, 133.89, -248.67, 99.85, 4.42, 0.000, 0.000, 0.000, 15:43:39.022, 1587847419022
12, 134.80, -244.33, 104.07, 20.83, 0.000, 0.000, 0.000, 15:43:39.022, 1587847419022
13, 168.53, -216.93, 129.86, 24.09, 0.000, 0.000, 0.000, 15:43:39.024, 1587847419024
14, 126.69, -244.97, 105.30, 6.99, 0.000, 0.000, 0.000, 15:43:39.024, 1587847419024
15, 125.87, -248.46, 104.70, 16.71, 0.000, 0.000, 0.000, 15:43:39.036, 1587847419036
16, 152.80, -225.72, 123.70, 29.33, 0.000, 0.000, 0.000, 15:43:39.036, 1587847419036
17, 143.60, -234.89, 114.41, 15.56, 0.000, 0.000, 0.000, 15:43:39.037, 1587847419037
18, 133.94, -255.69, 89.66, 6.49, 0.000, 0.000, 0.000, 15:43:39.037, 1587847419037
19, 155.43, -230.55, 119.54, 28.87, 0.000, 0.000, 0.000, 15:43:39.051, 1587847419051
20, 152.64, -224.60, 123.67, 27.11, 0.000, 0.000, 0.000, 15:43:39.051, 1587847419051
21, 123.93, -255.06, 96.33, 6.10, 0.000, 0.000, 0.000, 15:43:39.067, 1587847419067
22, 132.83, -246.40, 101.87, 20.66, 0.000, 0.000, 0.000, 15:43:39.067, 1587847419067
23, 158.51, -229.15, 128.87, 23.05, 0.000, 0.000, 0.000, 15:43:39.072, 1587847419072
24, 141.64, -246.33, 100.60, 6.81, 0.000, 0.000, 0.000, 15:43:39.072, 1587847419072
25, 141.09, -242.51, 102.40, 22.12, 0.000, 0.000, 0.000, 15:43:39.081, 1587847419081
26, 157.45, -224.22, 122.93, 25.40, 0.000, 0.000, 0.000, 15:43:39.081, 1587847419081
27, 130.35, -246.04, 103.05, 6.92, 0.000, 0.000, 0.000, 15:43:39.097, 1587847419097
28, 122.34, -247.24, 107.45, 14.94, 0.000, 0.000, 0.000, 15:43:39.097, 1587847419097
29, 152.48, -229.44, 119.37, 24.13, 0.000, 0.000, 0.000, 15:43:39.098, 1587847419098
30, 154.09, -235.66, 119.97, 9.07, 0.000, 0.000, 0.000, 15:43:39.098, 1587847419098
31, 128.88, -248.95, 100.13, 11.76, 0.000, 0.000, 0.000, 15:43:39.113, 1587847419113
32, 141.68, -230.43, 118.67, 23.59, 0.000, 0.000, 0.000, 15:43:39.113, 1587847419113
33, 143.28, -223.84, 122.74, 17.74, 0.000, 0.000, 0.000, 15:43:39.128, 1587847419128
34, 144.29, -236.52, 110.41, 12.26, 0.000, 0.000, 0.000, 15:43:39.128, 1587847419128
35, 138.01, -242.63, 116.93, 26.51, 0.000, 0.000, 0.000, 15:43:39.130, 1587847419130
36, 152.74, -224.21, 129.95, 29.08, 0.000, 0.000, 0.000, 15:43:39.130, 1587847419130
37, 149.13, -243.77, 102.78, 12.48, 0.000, 0.000, 0.000, 15:43:39.141, 1587847419141
38, 146.53, -232.32, 114.90, 22.01, 0.000, 0.000, 0.000, 15:43:39.141, 1587847419141
39, 148.74, -228.69, 120.85, 28.51, 0.000, 0.000, 0.000, 15:43:39.156, 1587847419156
40, 144.49, -235.91, 115.35, 11.13, 0.000, 0.000, 0.000, 15:43:39.156, 1587847419156
41, 121.16, -256.33, 90.07, 12.80, 0.000, 0.000, 0.000, 15:43:39.158, 1587847419158
42, 154.00, -240.45, 114.65, 22.20, 0.000, 0.000, 0.000, 15:43:39.158, 1587847419158
43, 150.14, -247.01, 112.61, 13.31, 0.000, 0.000, 0.000, 15:43:39.171, 1587847419171
44, 137.99, -244.37, 102.64, 12.07, 0.000, 0.000, 0.000, 15:43:39.171, 1587847419171
45, 142.38, -253.74, 106.55, 19.44, 0.000, 0.000, 0.000, 15:43:39.187, 1587847419187
46, 167.48, -227.76, 122.53, 15.21, 0.000, 0.000, 0.000, 15:43:39.187, 1587847419187
47, 135.07, -253.12, 97.57, 8.14, 0.000, 0.000, 0.000, 15:43:39.188, 1587847419188
48, 145.01, -244.78, 100.55, 17.19, 0.000, 0.000, 0.000, 15:43:39.188, 1587847419188
49, 161.93, -230.43, 116.11, 27.61, 0.000, 0.000, 0.000, 15:43:39.201, 1587847419201
50, 164.15, -239.56, 119.78, 17.64, 0.000, 0.000, 0.000, 15:43:39.201, 1587847419201
51, 144.44, -255.78, 95.01, 14.62, 0.000, 0.000, 0.000, 15:43:39.217, 1587847419217
52, 157.97, -233.65, 115.62, 25.90, 0.000, 0.000, 0.000, 15:43:39.217, 1587847419217
53, 163.81, -238.33, 116.68, 16.28, 0.000, 0.000, 0.000, 15:43:39.218, 1587847419218
54, 131.08, -259.92, 92.11, 11.10, 0.000, 0.000, 0.000, 15:43:39.218, 1587847419218
55, 156.99, -233.85, 121.85, 19.70, 0.000, 0.000, 0.000, 15:43:39.231, 1587847419231
56, 149.50, -237.62, 115.76, 21.76, 0.000, 0.000, 0.000, 15:43:39.231, 1587847419231
57, 129.91, -254.69, 99.90, 5.59, 0.000, 0.000, 0.000, 15:43:39.246, 1587847419246
58, 133.55, -250.47, 97.21, 17.53, 0.000, 0.000, 0.000, 15:43:39.246, 1587847419246
59, 147.45, -244.94, 117.91, 25.77, 0.000, 0.000, 0.000, 15:43:39.248, 1587847419248
60, 156.92, -237.52, 115.52, 12.34, 0.000, 0.000, 0.000, 15:43:39.248, 1587847419248
61, 139.39, -252.65, 94.75, 15.09, 0.000, 0.000, 0.000, 15:43:39.262, 1587847419262
62, 167.99, -225.99, 127.06, 22.58, 0.000, 0.000, 0.000, 15:43:39.262, 1587847419262
63, 151.63, -236.00, 111.70, 21.08, 0.000, 0.000, 0.000, 15:43:39.279, 1587847419279
64, 153.34, -237.18, 110.12, 21.49, 0.000, 0.000, 0.000, 15:43:39.279, 1587847419279
65, 151.54, -236.09, 116.74, 33.68, 0.000, 0.000, 0.000, 15:43:39.292, 1587847419292
66, 150.07, -233.56, 125.45, 33.41, 0.000, 0.000, 0.000, 15:43:39.293, 1587847419293
67, 147.35, -229.05, 123.65, 21.75, 0.000, 0.000, 0.000, 15:43:39.296, 1587847419296
68, 151.29, -223.72, 118.55, 30.02, 0.000, 0.000, 0.000, 15:43:39.296, 1587847419296
69, 163.32, -222.02, 123.86, 42.88, 0.000, 0.000, 0.000, 15:43:39.307, 1587847419307
70, 162.82, -213.85, 150.53, 33.81, 0.000, 0.000, 0.000, 15:43:39.307, 1587847419307
71, 139.68, -226.52, 139.20, 33.20, 0.000, 0.000, 0.000, 15:43:39.310, 1587847419310
72, 155.55, -213.50, 156.53, 48.62, 0.000, 0.000, 0.000, 15:43:39.310, 1587847419310
73, 154.73, -207.98, 163.27, 42.62, 0.000, 0.000, 0.000, 15:43:39.330, 1587847419330
74, 140.95, -213.38, 164.82, 40.36, 0.000, 0.000, 0.000, 15:43:39.330, 1587847419330
75, 143.06, -215.85, 174.28, 45.84, 0.000, 0.000, 0.000, 15:43:39.336, 1587847419336
76, 138.00, -222.18, 177.93, 40.35, 0.000, 0.000, 0.000, 15:43:39.336, 1587847419336
77, 116.81, -226.99, 161.94, 30.02, 0.000, 0.000, 0.000, 15:43:39.337, 1587847419337
78, 114.87, -220.37, 151.94, 38.84, 0.000, 0.000, 0.000, 15:43:39.337, 1587847419337
79, 121.65, -210.07, 173.40, 41.46, 0.000, 0.000, 0.000, 15:43:39.351, 1587847419351
80, 113.53, -214.47, 171.59, 28.11, 0.000, 0.000, 0.000, 15:43:39.351, 1587847419351
81, 91.74, -223.22, 160.95, 27.25, 0.000, 0.000, 0.000, 15:43:39.366, 1587847419366
82, 118.13, -227.17, 166.17, 39.89, 0.000, 0.000, 0.000, 15:43:39.366, 1587847419366
83, 118.62, -212.80, 176.50, 36.54, 0.000, 0.000, 0.000, 15:43:39.367, 1587847419367
84, 116.68, -217.42, 156.12, 30.13, 0.000, 0.000, 0.000, 15:43:39.367, 1587847419367
85, 109.71, -220.44, 155.88, 42.86, 0.000, 0.000, 0.000, 15:43:39.380, 1587847419380
86, 130.05, -186.21, 180.44, 41.81, 0.000, 0.000, 0.000, 15:43:39.380, 1587847419380
87, 110.72, -217.10, 168.79, 28.85, 0.000, 0.000, 0.000, 15:43:39.397, 1587847419397
88, 110.45, -216.24, 175.52, 38.13, 0.000, 0.000, 0.000, 15:43:39.397, 1587847419397
89, 131.36, -205.29, 186.72, 56.76, 0.000, 0.000, 0.000, 15:43:39.398, 1587847419398
90, 129.17, -198.23, 184.15, 41.31, 0.000, 0.000, 0.000, 15:43:39.398, 1587847419398
91, 129.02, -207.41, 173.07, 37.25, 0.000, 0.000, 0.000, 15:43:39.411, 1587847419411
92, 132.08, -211.43, 167.79, 47.17, 0.000, 0.000, 0.000, 15:43:39.411, 1587847419411
93, 143.26, -200.75, 171.32, 37.49, 0.000, 0.000, 0.000, 15:43:39.427, 1587847419427
94, 129.61, -214.57, 163.15, 42.91, 0.000, 0.000, 0.000, 15:43:39.427, 1587847419427
95, 145.54, -196.52, 177.30, 59.87, 0.000, 0.000, 0.000, 15:43:39.428, 1587847419428
96, 159.38, -176.52, 196.00, 59.16, 0.000, 0.000, 0.000, 15:43:39.428, 1587847419428
97, 137.62, -211.23, 167.07, 31.85, 0.000, 0.000, 0.000, 15:43:39.441, 1587847419441
98, 113.34, -237.62, 132.77, 25.22, 0.000, 0.000, 0.000, 15:43:39.441, 1587847419441
99, 127.59, -221.11, 153.12, 37.01, 0.000, 0.000, 0.000, 15:43:39.457, 1587847419457
100, 121.54, -232.46, 140.76, 13.53, 0.000, 0.000, 0.000, 15:43:39.457, 1587847419457
101, 105.62, -243.57, 129.72, 4.39, 0.000, 0.000, 0.000, 15:43:39.459, 1587847419459
102, 130.89, -213.69, 160.81, 34.02, 0.000, 0.000, 0.000, 15:43:39.459, 1587847419459
103, 141.38, -206.18, 165.83, 27.52, 0.000, 0.000, 0.000, 15:43:39.471, 1587847419471
104, 129.88, -226.55, 152.28, 15.70, 0.000, 0.000, 0.000, 15:43:39.471, 1587847419471
105, 145.46, -207.56, 158.19, 26.06, 0.000, 0.000, 0.000, 15:43:39.486, 1587847419486
106, 168.16, -179.62, 176.68, 31.11, 0.000, 0.000, 0.000, 15:43:39.486, 1587847419486
107, 158.47, -188.13, 167.48, 14.25, 0.000, 0.000, 0.000, 15:43:39.488, 1587847419488
108, 146.81, -196.53, 152.69, 15.91, 0.000, 0.000, 0.000, 15:43:39.488, 1587847419488
109, 167.19, -175.40, 175.49, 31.47, 0.000, 0.000, 0.000, 15:43:39.501, 1587847419501
110, 185.19, -156.31, 184.82, 22.45, 0.000, 0.000, 0.000, 15:43:39.501, 1587847419501
111, 144.81, -198.50, 142.99, 10.85, 0.000, 0.000, 0.000, 15:43:39.516, 1587847419516
112, 142.07, -182.61, 148.48, 28.97, 0.000, 0.000, 0.000, 15:43:39.516, 1587847419516
113, 174.23, -161.50, 165.17, 30.87, 0.000, 0.000, 0.000, 15:43:39.518, 1587847419518
114, 147.59, -189.91, 134.72, 11.38, 0.000, 0.000, 0.000, 15:43:39.518, 1587847419518
115, 136.36, -199.71, 122.00, 24.51, 0.000, 0.000, 0.000, 15:43:39.530, 1587847419530
116, 169.63, -169.32, 147.97, 40.07, 0.000, 0.000, 0.000, 15:43:39.530, 1587847419530
117, 143.22, -180.20, 142.25, 28.36, 0.000, 0.000, 0.000, 15:43:39.547, 1587847419547
118, 133.14, -202.09, 124.51, 25.92, 0.000, 0.000, 0.000, 15:43:39.547, 1587847419547
119, 155.43, -188.41, 146.21, 39.47, 0.000, 0.000, 0.000, 15:43:39.548, 1587847419548
120, 151.51, -183.69, 151.02, 33.15, 0.000, 0.000, 0.000, 15:43:39.548, 1587847419548
121, 125.55, -213.89, 113.35, 19.92, 0.000, 0.000, 0.000, 15:43:39.577, 1587847419577
122, 145.19, -198.79, 137.12, 33.35, 0.000, 0.000, 0.000, 15:43:39.577, 1587847419577
123, 161.10, -184.68, 157.10, 44.28, 0.000, 0.000, 0.000, 15:43:39.578, 1587847419578
124, 138.66, -198.60, 136.73, 28.97, 0.000, 0.000, 0.000, 15:43:39.578, 1587847419578
125, 128.45, -207.67, 118.48, 39.12, 0.000, 0.000, 0.000, 15:43:39.579, 1587847419579
126, 163.24, -188.46, 152.46, 46.43, 0.000, 0.000, 0.000, 15:43:39.579, 1587847419579
127, 129.72, -210.12, 133.14, 21.24, 0.000, 0.000, 0.000, 15:43:39.591, 1587847419591
128, 94.55, -251.14, 100.61, 16.81, 0.000, 0.000, 0.000, 15:43:39.591, 1587847419591
129, 138.42, -198.76, 150.14, 35.72, 0.000, 0.000, 0.000, 15:43:39.606, 1587847419606
130, 135.10, -207.48, 138.28, 23.65, 0.000, 0.000, 0.000, 15:43:39.606, 1587847419606
131, 81.46, -254.62, 89.44, 6.40, 0.000, 0.000, 0.000, 15:43:39.607, 1587847419607
132, 120.24, -221.06, 127.17, 33.71, 0.000, 0.000, 0.000, 15:43:39.607, 1587847419607
133, 150.86, -189.46, 168.33, 49.18, 0.000, 0.000, 0.000, 15:43:39.627, 1587847419627
134, 133.72, -211.05, 143.56, 26.80, 0.000, 0.000, 0.000, 15:43:39.627, 1587847419627
135, 120.37, -236.93, 121.11, 33.19, 0.000, 0.000, 0.000, 15:43:39.637, 1587847419637
136, 151.82, -207.63, 151.91, 44.71, 0.000, 0.000, 0.000, 15:43:39.637, 1587847419637
137, 134.58, -218.08, 143.42, 22.27, 0.000, 0.000, 0.000, 15:43:39.638, 1587847419638
138, 95.35, -256.86, 96.33, 16.10, 0.000, 0.000, 0.000, 15:43:39.638, 1587847419638
139, 127.57, -228.04, 125.15, 36.03, 0.000, 0.000, 0.000, 15:43:39.651, 1587847419651
140, 140.65, -210.42, 144.34, 25.94, 0.000, 0.000, 0.000, 15:43:39.651, 1587847419651
141, 104.73, -257.20, 98.32, 8.48, 0.000, 0.000, 0.000, 15:43:39.667, 1587847419667
142, 97.58, -251.10, 101.77, 20.65, 0.000, 0.000, 0.000, 15:43:39.667, 1587847419667
143, 136.94, -229.16, 127.11, 25.06, 0.000, 0.000, 0.000, 15:43:39.668, 1587847419668
144, 102.78, -257.02, 93.32, 6.10, 0.000, 0.000, 0.000, 15:43:39.668, 1587847419668
145, 92.71, -271.19, 78.95, 4.86, 0.000, 0.000, 0.000, 15:43:39.681, 1587847419681
146, 133.45, -232.92, 118.45, 21.33, 0.000, 0.000, 0.000, 15:43:39.681, 1587847419681
147, 112.17, -253.60, 102.40, 3.32, 0.000, 0.000, 0.000, 15:43:39.699, 1587847419699
148, 75.15, -284.09, 69.99, -5.51, 0.000, 0.000, 0.000, 15:43:39.699, 1587847419699
149, 107.62, -249.01, 104.77, 13.13, 0.000, 0.000, 0.000, 15:43:39.700, 1587847419700
150, 119.51, -240.71, 110.63, 10.90, 0.000, 0.000, 0.000, 15:43:39.700, 1587847419700
151, 82.78, -279.06, 79.61, -6.01, 0.000, 0.000, 0.000, 15:43:39.711, 1587847419711
152, 98.91, -262.38, 92.37, 4.90, 0.000, 0.000, 0.000, 15:43:39.711, 1587847419711
153, 118.32, -245.78, 112.82, 20.57, 0.000, 0.000, 0.000, 15:43:39.727, 1587847419727
154, 85.34, -279.39, 83.67, -8.21, 0.000, 0.000, 0.000, 15:43:39.728, 1587847419728
155, 75.50, -284.71, 74.22, -2.72, 0.000, 0.000, 0.000, 15:43:39.731, 1587847419731
156, 111.82, -243.90, 114.37, 16.45, 0.000, 0.000, 0.000, 15:43:39.731, 1587847419731
157, 96.39, -257.94, 103.81, -2.15, 0.000, 0.000, 0.000, 15:43:39.741, 1587847419741
158, 65.93, -288.54, 62.41, -9.50, 0.000, 0.000, 0.000, 15:43:39.741, 1587847419741
159, 105.05, -258.97, 89.48, 13.87, 0.000, 0.000, 0.000, 15:43:39.757, 1587847419757
160, 110.47, -252.33, 102.51, 4.50, 0.000, 0.000, 0.000, 15:43:39.757, 1587847419757
161, 75.78, -286.93, 70.20, -12.13, 0.000, 0.000, 0.000, 15:43:39.759, 1587847419759
162, 90.95, -273.90, 86.07, 2.24, 0.000, 0.000, 0.000, 15:43:39.759, 1587847419759
163, 115.19, -243.50, 113.03, 13.35, 0.000, 0.000, 0.000, 15:43:39.771, 1587847419771
164, 85.83, -273.27, 78.52, -12.75, 0.000, 0.000, 0.000, 15:43:39.771, 1587847419771
165, 83.71, -279.07, 67.47, -6.05, 0.000, 0.000, 0.000, 15:43:39.787, 1587847419787
166, 123.33, -246.19, 102.01, 15.58, 0.000, 0.000, 0.000, 15:43:39.787, 1587847419787
167, 120.89, -246.05, 96.46, 0.52, 0.000, 0.000, 0.000, 15:43:39.789, 1587847419789
168, 83.72, -283.02, 62.68, -6.96, 0.000, 0.000, 0.000, 15:43:39.789, 1587847419789
169, 113.38, -248.95, 96.43, 15.71, 0.000, 0.000, 0.000, 15:43:39.802, 1587847419802
170, 126.78, -237.92, 106.09, 11.68, 0.000, 0.000, 0.000, 15:43:39.802, 1587847419802
171, 92.01, -269.41, 77.42, -2.21, 0.000, 0.000, 0.000, 15:43:39.817, 1587847419817
172, 123.85, -246.37, 97.79, 17.18, 0.000, 0.000, 0.000, 15:43:39.817, 1587847419817
173, 135.33, -226.64, 112.50, 21.49, 0.000, 0.000, 0.000, 15:43:39.819, 1587847419819
174, 108.26, -251.21, 96.43, 5.07, 0.000, 0.000, 0.000, 15:43:39.819, 1587847419819
175, 103.19, -264.55, 90.79, 10.15, 0.000, 0.000, 0.000, 15:43:39.835, 1587847419835
176, 137.40, -227.92, 118.98, 25.98, 0.000, 0.000, 0.000, 15:43:39.835, 1587847419835
177, 134.17, -221.90, 124.63, 5.99, 0.000, 0.000, 0.000, 15:43:39.847, 1587847419847
178, 103.73, -259.02, 84.36, 16.11, 0.000, 0.000, 0.000, 15:43:39.847, 1587847419847
179, 140.38, -231.22, 114.66, 27.90, 0.000, 0.000, 0.000, 15:43:39.848, 1587847419848
180, 158.72, -210.24, 135.08, 22.22, 0.000, 0.000, 0.000, 15:43:39.848, 1587847419848
181, 106.69, -249.19, 98.68, 11.22, 0.000, 0.000, 0.000, 15:43:39.863, 1587847419863
182, 119.57, -228.35, 113.60, 22.72, 0.000, 0.000, 0.000, 15:43:39.863, 1587847419863
183, 157.82, -212.74, 127.58, 32.40, 0.000, 0.000, 0.000, 15:43:39.876, 1587847419876
184, 137.00, -230.41, 104.91, 9.52, 0.000, 0.000, 0.000, 15:43:39.876, 1587847419876
185, 116.21, -256.23, 87.12, 13.49, 0.000, 0.000, 0.000, 15:43:39.878, 1587847419878
186, 154.78, -207.77, 133.49, 28.99, 0.000, 0.000, 0.000, 15:43:39.878, 1587847419878
187, 118.55, -234.41, 105.83, 14.24, 0.000, 0.000, 0.000, 15:43:39.891, 1587847419891
188, 115.27, -250.23, 87.56, 4.72, 0.000, 0.000, 0.000, 15:43:39.891, 1587847419891
189, 141.63, -233.02, 108.28, 21.74, 0.000, 0.000, 0.000, 15:43:39.906, 1587847419906
190, 145.41, -226.62, 114.26, 20.10, 0.000, 0.000, 0.000, 15:43:39.906, 1587847419906
191, 103.85, -258.38, 84.13, 2.98, 0.000, 0.000, 0.000, 15:43:39.907, 1587847419907
192, 127.95, -241.57, 97.07, 13.05, 0.000, 0.000, 0.000, 15:43:39.907, 1587847419907
193, 138.09, -231.19, 113.78, 22.74, 0.000, 0.000, 0.000, 15:43:39.927, 1587847419927
194, 132.83, -243.01, 100.33, 4.69, 0.000, 0.000, 0.000, 15:43:39.927, 1587847419927
195, 108.84, -252.17, 87.09, 9.13, 0.000, 0.000, 0.000, 15:43:39.937, 1587847419937
196, 133.08, -239.83, 98.59, 22.50, 0.000, 0.000, 0.000, 15:43:39.937, 1587847419937
197, 124.93, -239.91, 98.46, 4.48, 0.000, 0.000, 0.000, 15:43:39.938, 1587847419938
198, 108.05, -252.10, 85.05, 6.11, 0.000, 0.000, 0.000, 15:43:39.938, 1587847419938
199, 135.16, -232.82, 109.27, 19.14, 0.000, 0.000, 0.000, 15:43:39.952, 1587847419952
200, 150.80, -223.39, 114.90, 15.44, 0.000, 0.000, 0.000, 15:43:39.952, 1587847419952
0, 99.41, -264.99, 80.49, -1.03, 0.000, 0.000, 0.000, 15:43:39.953, 1587847419953
1, 124.32, -249.82, 98.90, 17.60, 0.000, 0.000, 0.000, 15:43:39.966, 1587847419966
2, 141.11, -234.56, 106.92, 17.59, 0.000, 0.000, 0.000, 15:43:39.966, 1587847419966
3, 110.77, -258.28, 85.46, 0.12, 0.000, 0.000, 0.000, 15:43:39.982, 1587847419982
4, 108.77, -258.80, 86.60, 3.05, 0.000, 0.000, 0.000, 15:43:39.982, 1587847419982
5, 132.55, -230.55, 105.82, 19.12, 0.000, 0.000, 0.000, 15:43:39.984, 1587847419984
6, 137.34, -235.82, 106.00, 3.71, 0.000, 0.000, 0.000, 15:43:39.984, 1587847419984
7, 91.42, -275.89, 69.68, -1.68, 0.000, 0.000, 0.000, 15:43:39.997, 1587847419997
8, 125.83, -242.95, 102.30, 14.97, 0.000, 0.000, 0.000, 15:43:39.997, 1587847419997
9, 135.18, -234.85, 110.71, 11.70, 0.000, 0.000, 0.000, 15:43:40.012, 1587847420012
10, 103.72, -260.86, 82.24, -2.46, 0.000, 0.000, 0.000, 15:43:40.012, 1587847420012
11, 122.24, -247.39, 92.16, 8.84, 0.000, 0.000, 0.000, 15:43:40.013, 1587847420013
12, 145.67, -226.43, 109.06, 12.52, 0.000, 0.000, 0.000, 15:43:40.013, 1587847420013
13, 129.07, -244.45, 94.29, 0.55, 0.000, 0.000, 0.000, 15:43:40.042, 1587847420042
14, 110.19, -263.06, 80.04, 8.33, 0.000, 0.000, 0.000, 15:43:40.042, 1587847420042
15, 137.55, -231.40, 111.24, 20.13, 0.000, 0.000, 0.000, 15:43:40.043, 1587847420043
16, 124.64, -242.54, 95.56, 6.89, 0.000, 0.000, 0.000, 15:43:40.043, 1587847420043
17, 95.97, -267.61, 81.30, 1.55, 0.000, 0.000, 0.000, 15:43:40.043, 1587847420043
18, 135.00, -234.85, 110.58, 17.52, 0.000, 0.000, 0.000, 15:43:40.043, 1587847420043
19, 139.05, -231.80, 109.24, 14.23, 0.000, 0.000, 0.000, 15:43:40.057, 1587847420057
20, 113.75, -260.36, 89.89, 2.14, 0.000, 0.000, 0.000, 15:43:40.057, 1587847420057
21, 120.39, -243.00, 97.17, 13.88, 0.000, 0.000, 0.000, 15:43:40.072, 1587847420072
22, 138.17, -231.61, 115.96, 19.38, 0.000, 0.000, 0.000, 15:43:40.072, 1587847420072
23, 121.37, -251.76, 95.52, 2.63, 0.000, 0.000, 0.000, 15:43:40.072, 1587847420072
24, 114.82, -254.70, 84.41, 9.15, 0.000, 0.000, 0.000, 15:43:40.072, 1587847420072
25, 139.98, -226.96, 120.13, 23.27, 0.000, 0.000, 0.000, 15:43:40.086, 1587847420086
26, 130.68, -237.17, 107.33, 9.67, 0.000, 0.000, 0.000, 15:43:40.087, 1587847420087
27, 109.65, -259.07, 85.56, 3.03, 0.000, 0.000, 0.000, 15:43:40.101, 1587847420101
28, 131.02, -233.72, 107.98, 20.87, 0.000, 0.000, 0.000, 15:43:40.101, 1587847420101
29, 135.91, -224.57, 116.23, 13.84, 0.000, 0.000, 0.000, 15:43:40.103, 1587847420103
30, 101.59, -261.90, 81.31, 3.07, 0.000, 0.000, 0.000, 15:43:40.103, 1587847420103
31, 108.49, -246.92, 90.62, 12.48, 0.000, 0.000, 0.000, 15:43:40.134, 1587847420134
32, 135.90, -229.40, 118.31, 18.87, 0.000, 0.000, 0.000, 15:43:40.134, 1587847420134
33, 113.50, -253.45, 90.18, -0.80, 0.000, 0.000, 0.000, 15:43:40.136, 1587847420136
34, 98.50, -257.74, 82.20, 2.62, 0.000, 0.000, 0.000, 15:43:40.136, 1587847420136
35, 139.80, -225.26, 114.72, 17.98, 0.000, 0.000, 0.000, 15:43:40.136, 1587847420136
36, 128.65, -238.11, 106.25, 2.22, 0.000, 0.000, 0.000, 15:43:40.136, 1587847420136
37, 109.60, -260.26, 83.60, 0.76, 0.000, 0.000, 0.000, 15:43:40.146, 1587847420146
38, 120.50, -242.72, 92.44, 17.54, 0.000, 0.000, 0.000, 15:43:40.146, 1587847420146
39, 136.51, -234.94, 110.12, 14.81, 0.000, 0.000, 0.000, 15:43:40.164, 1587847420164
40, 111.38, -255.95, 86.69, -1.07, 0.000, 0.000, 0.000, 15:43:40.164, 1587847420164
41, 117.61, -250.33, 90.44, 10.86, 0.000, 0.000, 0.000, 15:43:40.167, 1587847420167
42, 136.01, -223.02, 112.34, 19.20, 0.000, 0.000, 0.000, 15:43:40.167, 1587847420167
43, 123.36, -247.15, 95.83, 1.04, 0.000, 0.000, 0.000, 15:43:40.175, 1587847420175
44, 100.27, -262.05, 78.74, 6.88, 0.000, 0.000, 0.000, 15:43:40.175, 1587847420175
45, 128.91, -231.23, 106.79, 17.32, 0.000, 0.000, 0.000, 15:43:40.191, 1587847420191
46, 122.98, -242.71, 98.31, 3.85, 0.000, 0.000, 0.000, 15:43:40.191, 1587847420191
47, 100.03, -260.95, 77.69, 2.67, 0.000, 0.000, 0.000, 15:43:40.192, 1587847420192
48, 125.47, -238.83, 109.92, 18.27, 0.000, 0.000, 0.000, 15:43:40.192, 1587847420192
49, 138.13, -233.71, 114.61, 11.73, 0.000, 0.000, 0.000, 15:43:40.206, 1587847420206
50, 107.12, -258.79, 89.34, 0.75, 0.000, 0.000, 0.000, 15:43:40.206, 1587847420206
51, 113.65, -247.17, 103.09, 17.87, 0.000, 0.000, 0.000, 15:43:40.221, 1587847420221
52, 121.28, -230.24, 111.62, 18.00, 0.000, 0.000, 0.000, 15:43:40.221, 1587847420221
53, 86.46, -248.52, 61.21, -0.63, 0.000, 0.000, 0.000, 15:43:40.223, 1587847420223
54, 114.70, -260.45, 63.75, 6.09, 0.000, 0.000, 0.000, 15:43:40.223, 1587847420223
55, 168.20, -216.73, 123.64, 21.44, 0.000, 0.000, 0.000, 15:43:40.236, 1587847420236
56, 142.43, -222.17, 132.14, 8.26, 0.000, 0.000, 0.000, 15:43:40.236, 1587847420236
57, 60.45, -266.09, 97.33, -0.05, 0.000, 0.000, 0.000, 15:43:40.252, 1587847420252
58, 29.73, -251.73, 120.29, 19.22, 0.000, 0.000, 0.000, 15:43:40.252, 1587847420252
59, 53.38, -269.82, 62.35, 12.18, 0.000, 0.000, 0.000, 15:43:40.253, 1587847420253
60, 89.92, -229.49, 87.76, 0.17, 0.000, 0.000, 0.000, 15:43:40.253, 1587847420253
61, 141.35, -210.38, 117.71, 14.74, 0.000, 0.000, 0.000, 15:43:40.268, 1587847420268
62, 90.59, -201.10, 116.19, 20.05, 0.000, 0.000, 0.000, 15:43:40.268, 1587847420268
63, 166.74, -261.68, -32.09, 4.62, 0.000, 0.000, 0.000, 15:43:40.283, 1587847420283
64, -39.30, -264.05, 104.40, 9.54, 0.000, 0.000, 0.000, 15:43:40.283, 1587847420283
65, 114.91, -192.01, 251.82, 24.86, 0.000, 0.000, 0.000, 15:43:40.283, 1587847420283
66, 135.43, -222.79, 133.00, 7.99, 0.000, 0.000, 0.000, 15:43:40.283, 1587847420283
67, 79.49, -278.70, 36.98, 3.55, 0.000, 0.000, 0.000, 15:43:40.296, 1587847420296
68, 244.24, -239.06, 129.37, 22.28, 0.000, 0.000, 0.000, 15:43:40.296, 1587847420296
69, 144.51, -267.02, 53.16, 18.70, 0.000, 0.000, 0.000, 15:43:40.311, 1587847420311
70, 83.84, -273.18, -126.65, 2.99, 0.000, 0.000, 0.000, 15:43:40.311, 1587847420311
71, 234.21, -199.56, 179.09, 15.92, 0.000, 0.000, 0.000, 15:43:40.313, 1587847420313
72, 229.40, -263.38, 92.03, 22.03, 0.000, 0.000, 0.000, 15:43:40.313, 1587847420313
73, 99.51, -285.35, 101.97, 5.33, 0.000, 0.000, 0.000, 15:43:40.326, 1587847420326
74, -47.60, -284.04, 217.28, 11.25, 0.000, 0.000, 0.000, 15:43:40.326, 1587847420326
75, 240.98, -210.72, 308.43, 21.93, 0.000, 0.000, 0.000, 15:43:40.343, 1587847420343
76, 162.66, -217.45, 219.73, 11.29, 0.000, 0.000, 0.000, 15:43:40.343, 1587847420343
77, 46.94, -294.75, 90.42, 4.70, 0.000, 0.000, 0.000, 15:43:40.347, 1587847420347
78, 190.21, -201.89, 31.22, 23.07, 0.000, 0.000, 0.000, 15:43:40.347, 1587847420347
79, 205.55, -209.68, 145.53, 13.95, 0.000, 0.000, 0.000, 15:43:40.355, 1587847420355
80, 113.35, -238.17, 201.27, 9.40, 0.000, 0.000, 0.000, 15:43:40.355, 1587847420355
81, 102.02, -246.49, 137.36, 14.62, 0.000, 0.000, 0.000, 15:43:40.376, 1587847420376
82, 114.57, -221.35, 177.35, 14.89, 0.000, 0.000, 0.000, 15:43:40.376, 1587847420376
83, 84.30, -234.14, 133.95, -1.88, 0.000, 0.000, 0.000, 15:43:40.378, 1587847420378
84, 83.47, -233.34, 128.92, 6.43, 0.000, 0.000, 0.000, 15:43:40.378, 1587847420378
85, 114.38, -200.15, 159.64, 22.00, 0.000, 0.000, 0.000, 15:43:40.386, 1587847420386
86, 102.88, -206.34, 147.47, 10.58, 0.000, 0.000, 0.000, 15:43:40.386, 1587847420386
87, 78.38, -225.80, 132.97, 2.56, 0.000, 0.000, 0.000, 15:43:40.403, 1587847420403
88, 93.77, -204.94, 147.02, 21.54, 0.000, 0.000, 0.000, 15:43:40.403, 1587847420403
89, 108.56, -192.92, 161.61, 14.09, 0.000, 0.000, 0.000, 15:43:40.405, 1587847420405
90, 82.57, -221.35, 134.70, 5.34, 0.000, 0.000, 0.000, 15:43:40.405, 1587847420405
91, 81.96, -214.78, 142.68, 18.98, 0.000, 0.000, 0.000, 15:43:40.415, 1587847420415
92, 114.48, -192.23, 168.20, 23.83, 0.000, 0.000, 0.000, 15:43:40.415, 1587847420415
93, 93.94, -212.91, 137.31, 1.55, 0.000, 0.000, 0.000, 15:43:40.431, 1587847420431
94, 93.28, -223.09, 129.54, 8.03, 0.000, 0.000, 0.000, 15:43:40.431, 1587847420431
95, 121.34, -195.18, 163.53, 24.97, 0.000, 0.000, 0.000, 15:43:40.432, 1587847420432
96, 107.39, -203.54, 152.20, 10.05, 0.000, 0.000, 0.000, 15:43:40.432, 1587847420432
97, 91.38, -226.15, 131.54, 4.11, 0.000, 0.000, 0.000, 15:43:40.446, 1587847420446
98, 132.50, -196.68, 163.01, 35.54, 0.000, 0.000, 0.000, 15:43:40.446, 1587847420446
99, 138.35, -189.23, 172.34, 33.48, 0.000, 0.000, 0.000, 15:43:40.462, 1587847420462
100, 111.24, -224.79, 143.04, 17.77, 0.000, 0.000, 0.000, 15:43:40.462, 1587847420462
101, 120.68, -220.96, 142.70, 22.73, 0.000, 0.000, 0.000, 15:43:40.466, 1587847420466
102, 144.25, -203.15, 153.85, 28.39, 0.000, 0.000, 0.000, 15:43:40.466, 1587847420466
103, 117.77, -239.86, 128.70, 4.17, 0.000, 0.000, 0.000, 15:43:40.475, 1587847420475
104, 117.50, -243.78, 118.62, 5.17, 0.000, 0.000, 0.000, 15:43:40.475, 1587847420475
105, 132.84, -226.17, 132.75, 27.85, 0.000, 0.000, 0.000, 15:43:40.492, 1587847420492
106, 129.83, -238.12, 123.03, 8.42, 0.000, 0.000, 0.000, 15:43:40.492, 1587847420492
107, 105.28, -257.62, 91.80, 4.62, 0.000, 0.000, 0.000, 15:43:40.493, 1587847420493
108, 135.97, -226.91, 120.35, 22.73, 0.000, 0.000, 0.000, 15:43:40.493, 1587847420493
109, 141.38, -226.59, 119.74, 16.14, 0.000, 0.000, 0.000, 15:43:40.506, 1587847420506
110, 109.69, -253.59, 84.53, 1.27, 0.000, 0.000, 0.000, 15:43:40.506, 1587847420506
111, 123.10, -245.27, 98.73, 11.36, 0.000, 0.000, 0.000, 15:43:40.522, 1587847420522
112, 141.57, -221.49, 113.10, 16.29, 0.000, 0.000, 0.000, 15:43:40.522, 1587847420522
113, 107.22, -259.96, 75.56, -10.38, 0.000, 0.000, 0.000, 15:43:40.524, 1587847420524
114, 127.16, -245.09, 88.61, 9.10, 0.000, 0.000, 0.000, 15:43:40.524, 1587847420524
115, 152.23, -220.73, 116.54, 27.68, 0.000, 0.000, 0.000, 15:43:40.537, 1587847420537
116, 135.66, -233.62, 99.84, 11.66, 0.000, 0.000, 0.000, 15:43:40.537, 1587847420537
117, 125.26, -245.86, 82.34, 6.33, 0.000, 0.000, 0.000, 15:43:40.551, 1587847420551
118, 147.32, -220.72, 102.94, 29.70, 0.000, 0.000, 0.000, 15:43:40.551, 1587847420551
119, 155.14, -209.63, 117.47, 23.92, 0.000, 0.000, 0.000, 15:43:40.553, 1587847420553
120, 121.71, -241.81, 77.84, 6.86, 0.000, 0.000, 0.000, 15:43:40.553, 1587847420553
121, 136.07, -230.81, 81.26, 12.21, 0.000, 0.000, 0.000, 15:43:40.566, 1587847420566
122, 156.70, -215.23, 99.14, 13.25, 0.000, 0.000, 0.000, 15:43:40.566, 1587847420566
123, 130.05, -236.86, 78.88, 7.94, 0.000, 0.000, 0.000, 15:43:40.609, 1587847420609
124, 123.70, -243.76, 78.13, 9.70, 0.000, 0.000, 0.000, 15:43:40.609, 1587847420609
125, 152.19, -205.72, 106.77, 29.58, 0.000, 0.000, 0.000, 15:43:40.611, 1587847420611
126, 184.95, -183.96, 132.64, 40.38, 0.000, 0.000, 0.000, 15:43:40.611, 1587847420611
127, 156.04, -205.01, 110.92, 40.57, 0.000, 0.000, 0.000, 15:43:40.612, 1587847420612
128, 180.62, -188.79, 124.22, 38.99, 0.000, 0.000, 0.000, 15:43:40.612, 1587847420612
129, 166.78, -204.46, 113.67, 22.88, 0.000, 0.000, 0.000, 15:43:40.618, 1587847420618
130, 125.71, -242.89, 75.92, 1.05, 0.000, 0.000, 0.000, 15:43:40.618, 1587847420618
131, 131.79, -234.42, 80.66, 9.46, 0.000, 0.000, 0.000, 15:43:40.626, 1587847420626
132, 132.02, -222.62, 92.49, 4.92, 0.000, 0.000, 0.000, 15:43:40.626, 1587847420626
133, 126.58, -237.71, 72.78, 1.71, 0.000, 0.000, 0.000, 15:43:40.629, 1587847420629
134, 143.88, -231.62, 81.16, 20.62, 0.000, 0.000, 0.000, 15:43:40.629, 1587847420629
135, 163.21, -210.39, 105.11, 20.87, 0.000, 0.000, 0.000, 15:43:40.642, 1587847420642
136, 155.89, -215.82, 96.00, 17.42, 0.000, 0.000, 0.000, 15:43:40.642, 1587847420642
137, 139.51, -231.50, 78.72, 12.00, 0.000, 0.000, 0.000, 15:43:40.643, 1587847420643
138, 149.78, -214.52, 93.86, 28.25, 0.000, 0.000, 0.000, 15:43:40.643, 1587847420643
139, 160.53, -208.69, 93.44, 15.93, 0.000, 0.000, 0.000, 15:43:40.656, 1587847420656
140, 111.10, -248.91, 69.66, 2.49, 0.000, 0.000, 0.000, 15:43:40.656, 1587847420656
141, 143.40, -226.42, 88.52, 13.85, 0.000, 0.000, 0.000, 15:43:40.672, 1587847420672
142, 148.59, -209.16, 99.11, 21.10, 0.000, 0.000, 0.000, 15:43:40.672, 1587847420672
143, 133.45, -232.11, 82.95, 8.50, 0.000, 0.000, 0.000, 15:43:40.687, 1587847420687
144, 117.11, -248.45, 62.96, 6.44, 0.000, 0.000, 0.000, 15:43:40.687, 1587847420687
145, 147.78, -213.89, 94.99, 24.40, 0.000, 0.000, 0.000, 15:43:40.687, 1587847420687
146, 136.75, -226.07, 91.84, 5.88, 0.000, 0.000, 0.000, 15:43:40.687, 1587847420687
147, 100.77, -250.16, 65.91, -0.13, 0.000, 0.000, 0.000, 15:43:40.702, 1587847420702
148, 132.01, -221.28, 92.01, 18.14, 0.000, 0.000, 0.000, 15:43:40.702, 1587847420702
149, 145.91, -214.26, 98.33, 17.40, 0.000, 0.000, 0.000, 15:43:40.703, 1587847420703
150, 121.41, -238.35, 70.47, 1.21, 0.000, 0.000, 0.000, 15:43:40.703, 1587847420703
151, 118.16, -244.61, 67.00, 12.06, 0.000, 0.000, 0.000, 15:43:40.716, 1587847420716
152, 151.59, -206.90, 99.83, 17.08, 0.000, 0.000, 0.000, 15:43:40.716, 1587847420716
153, 131.91, -227.39, 80.20, -1.44, 0.000, 0.000, 0.000, 15:43:40.732, 1587847420732
154, 106.16, -250.55, 53.78, 4.71, 0.000, 0.000, 0.000, 15:43:40.732, 1587847420732
155, 143.67, -211.61, 95.21, 22.24, 0.000, 0.000, 0.000, 15:43:40.733, 1587847420733
156, 134.19, -220.16, 84.26, 9.78, 0.000, 0.000, 0.000, 15:43:40.733, 1587847420733
157, 105.75, -248.21, 61.23, 0.92, 0.000, 0.000, 0.000, 15:43:40.746, 1587847420746
158, 133.30, -218.55, 86.57, 19.04, 0.000, 0.000, 0.000, 15:43:40.746, 1587847420746
159, 143.62, -209.95, 98.66, 15.22, 0.000, 0.000, 0.000, 15:43:40.761, 1587847420761
160, 121.93, -232.63, 68.09, 0.20, 0.000, 0.000, 0.000, 15:43:40.761, 1587847420761
161, 114.48, -238.24, 66.06, 17.41, 0.000, 0.000, 0.000, 15:43:40.763, 1587847420763
162, 144.87, -214.24, 99.14, 22.63, 0.000, 0.000, 0.000, 15:43:40.763, 1587847420763
163, 120.26, -232.78, 70.99, -0.36, 0.000, 0.000, 0.000, 15:43:40.792, 1587847420792
164, 105.47, -245.71, 61.12, 6.51, 0.000, 0.000, 0.000, 15:43:40.792, 1587847420792
165, 141.17, -209.28, 97.62, 23.97, 0.000, 0.000, 0.000, 15:43:40.793, 1587847420793
166, 136.40, -216.19, 92.10, 10.35, 0.000, 0.000, 0.000, 15:43:40.793, 1587847420793
167, 106.50, -244.63, 56.56, 3.76, 0.000, 0.000, 0.000, 15:43:40.794, 1587847420794
168, 132.69, -217.87, 85.98, 22.04, 0.000, 0.000, 0.000, 15:43:40.794, 1587847420794
169, 148.49, -208.50, 93.56, 16.58, 0.000, 0.000, 0.000, 15:43:40.806, 1587847420806
170, 109.69, -241.10, 63.13, -0.73, 0.000, 0.000, 0.000, 15:43:40.806, 1587847420806
171, 127.78, -221.91, 84.17, 19.24, 0.000, 0.000, 0.000, 15:43:40.821, 1587847420821
172, 152.06, -196.08, 99.50, 19.23, 0.000, 0.000, 0.000, 15:43:40.821, 1587847420821
173, 129.56, -221.15, 76.17, 2.40, 0.000, 0.000, 0.000, 15:43:40.823, 1587847420823
174, 114.80, -235.70, 62.64, 11.46, 0.000, 0.000, 0.000, 15:43:40.823, 1587847420823
175, 146.53, -204.59, 83.50, 25.43, 0.000, 0.000, 0.000, 15:43:40.836, 1587847420836
176, 145.87, -213.51, 86.76, 8.18, 0.000, 0.000, 0.000, 15:43:40.836, 1587847420836
177, 123.05, -247.67, 57.76, 3.75, 0.000, 0.000, 0.000, 15:43:40.852, 1587847420852
178, 140.50, -213.19, 81.86, 23.36, 0.000, 0.000, 0.000, 15:43:40.852, 1587847420852
179, 152.43, -202.90, 86.48, 14.66, 0.000, 0.000, 0.000, 15:43:40.853, 1587847420853
180, 114.25, -239.28, 72.98, 3.94, 0.000, 0.000, 0.000, 15:43:40.853, 1587847420853
181, 111.37, -227.55, 70.27, 16.11, 0.000, 0.000, 0.000, 15:43:40.866, 1587847420866
182, 118.72, -192.06, 106.25, 26.69, 0.000, 0.000, 0.000, 15:43:40.866, 1587847420866
183, 135.59, -208.82, 85.92, 2.96, 0.000, 0.000, 0.000, 15:43:40.881, 1587847420881
184, 128.99, -256.36, 27.11, 6.91, 0.000, 0.000, 0.000, 15:43:40.881, 1587847420881
185, 100.72, -226.61, 70.55, 24.16, 0.000, 0.000, 0.000, 15:43:40.883, 1587847420883
186, 104.09, -212.36, 110.27, 10.39, 0.000, 0.000, 0.000, 15:43:40.883, 1587847420883
187, 117.20, -225.68, 57.02, 1.34, 0.000, 0.000, 0.000, 15:43:40.896, 1587847420896
188, 129.65, -196.59, 74.38, 22.51, 0.000, 0.000, 0.000, 15:43:40.896, 1587847420896
189, 84.53, -199.16, 123.90, 19.33, 0.000, 0.000, 0.000, 15:43:40.911, 1587847420911
190, 98.48, -223.70, 72.13, 3.56, 0.000, 0.000, 0.000, 15:43:40.911, 1587847420911
191, 45.63, -253.51, 79.45, 15.46, 0.000, 0.000, 0.000, 15:43:40.913, 1587847420913
192, 205.54, -174.97, 109.11, 19.70, 0.000, 0.000, 0.000, 15:43:40.913, 1587847420913
193, 139.70, -204.20, 54.06, 7.40, 0.000, 0.000, 0.000, 15:43:40.926, 1587847420926
194, 159.07, -228.73, 26.12, 13.11, 0.000, 0.000, 0.000, 15:43:40.926, 1587847420926
195, 40.42, -259.33, 59.57, 22.94, 0.000, 0.000, 0.000, 15:43:40.942, 1587847420942
196, 166.60, -180.66, 153.33, 12.30, 0.000, 0.000, 0.000, 15:43:40.942, 1587847420942
197, 147.77, -229.46, 102.51, 3.57, 0.000, 0.000, 0.000, 15:43:40.947, 1587847420947
198, 1.58, -281.02, 88.58, 22.48, 0.000, 0.000, 0.000, 15:43:40.947, 1587847420947
199, 80.48, -224.73, 82.49, 17.48, 0.000, 0.000, 0.000, 15:43:40.956, 1587847420956
200, 17.20, -303.75, 24.38, 1.00, 0.000, 0.000, 0.000, 15:43:40.956, 1587847420956
0, 257.14, -160.95, 38.82, 12.50, 0.000, 0.000, 0.000, 15:43:40.957, 1587847420957
1, 350.00, -134.85, 103.24, 21.93, 0.000, 0.000, 0.000, 15:43:40.971, 1587847420971
2, 181.22, -204.04, 229.37, 9.11, 0.000, 0.000, 0.000, 15:43:40.971, 1587847420971
3, 114.07, -262.98, 125.80, 12.70, 0.000, 0.000, 0.000, 15:43:40.987, 1587847420987
4, 135.85, -238.57, 127.79, 22.24, 0.000, 0.000, 0.000, 15:43:40.987, 1587847420987
5, 115.94, -244.06, 104.83, 11.93, 0.000, 0.000, 0.000, 15:43:40.988, 1587847420988
6, 102.19, -251.35, 89.20, 5.23, 0.000, 0.000, 0.000, 15:43:40.988, 1587847420988
7, 74.09, -250.56, 105.51, 21.25, 0.000, 0.000, 0.000, 15:43:41.001, 1587847421001
8, 124.56, -190.24, 138.85, 15.94, 0.000, 0.000, 0.000, 15:43:41.001, 1587847421001
9, 135.35, -229.48, 59.01, 1.93, 0.000, 0.000, 0.000, 15:43:41.016, 1587847421016
10, 122.37, -215.00, 118.08, 16.89, 0.000, 0.000, 0.000, 15:43:41.016, 1587847421016
11, 130.33, -198.53, 154.71, 24.22, 0.000, 0.000, 0.000, 15:43:41.017, 1587847421017
12, 100.60, -216.40, 143.72, 8.82, 0.000, 0.000, 0.000, 15:43:41.017, 1587847421017
13, 67.00, -242.00, 116.49, 13.49, 0.000, 0.000, 0.000, 15:43:41.031, 1587847421031
14, 110.58, -200.55, 152.48, 24.71, 0.000, 0.000, 0.000, 15:43:41.031, 1587847421031
15, 100.97, -208.37, 134.24, 11.87, 0.000, 0.000, 0.000, 15:43:41.047, 1587847421047
16, 79.08, -231.14, 115.48, 7.10, 0.000, 0.000, 0.000, 15:43:41.047, 1587847421047
17, 109.32, -195.99, 147.25, 19.04, 0.000, 0.000, 0.000, 15:43:41.048, 1587847421048
18, 119.45, -192.24, 148.54, 17.74, 0.000, 0.000, 0.000, 15:43:41.048, 1587847421048
19, 83.26, -226.14, 112.35, 0.79, 0.000, 0.000, 0.000, 15:43:41.061, 1587847421061
20, 94.00, -217.91, 123.07, 19.11, 0.000, 0.000, 0.000, 15:43:41.061, 1587847421061
21, 123.66, -188.97, 145.24, 21.10, 0.000, 0.000, 0.000, 15:43:41.077, 1587847421077
22, 92.10, -221.57, 117.02, 4.27, 0.000, 0.000, 0.000, 15:43:41.077, 1587847421077
23, 94.51, -223.84, 112.08, 9.99, 0.000, 0.000, 0.000, 15:43:41.078, 1587847421078
24, 125.55, -194.98, 137.27, 22.19, 0.000, 0.000, 0.000, 15:43:41.078, 1587847421078
25, 123.44, -205.68, 119.32, 13.59, 0.000, 0.000, 0.000, 15:43:41.091, 1587847421091
26, 108.33, -221.12, 100.25, 1.62, 0.000, 0.000, 0.000, 15:43:41.091, 1587847421091
27, 123.54, -207.67, 113.70, 21.89, 0.000, 0.000, 0.000, 15:43:41.107, 1587847421107
28, 134.27, -198.95, 130.75, 18.84, 0.000, 0.000, 0.000, 15:43:41.107, 1587847421107
29, 104.91, -230.17, 96.83, 7.51, 0.000, 0.000, 0.000, 15:43:41.108, 1587847421108
30, 119.92, -219.68, 110.13, 18.44, 0.000, 0.000, 0.000, 15:43:41.108, 1587847421108
31, 138.34, -199.71, 130.81, 22.30, 0.000, 0.000, 0.000, 15:43:41.122, 1587847421122
32, 116.08, -225.09, 101.87, 12.06, 0.000, 0.000, 0.000, 15:43:41.122, 1587847421122
33, 103.49, -240.84, 82.73, 8.55, 0.000, 0.000, 0.000, 15:43:41.153, 1587847421153
34, 134.11, -201.29, 118.03, 25.72, 0.000, 0.000, 0.000, 15:43:41.153, 1587847421153
35, 123.10, -216.10, 105.49, 11.97, 0.000, 0.000, 0.000, 15:43:41.154, 1587847421154
36, 99.05, -235.05, 77.36, 8.41, 0.000, 0.000, 0.000, 15:43:41.154, 1587847421154
37, 122.19, -211.01, 94.19, 23.18, 0.000, 0.000, 0.000, 15:43:41.155, 1587847421155
38, 129.03, -202.86, 110.86, 15.77, 0.000, 0.000, 0.000, 15:43:41.155, 1587847421155
39, 95.33, -230.35, 77.37, 3.64, 0.000, 0.000, 0.000, 15:43:41.156, 1587847421156
40, 115.00, -221.18, 81.81, 17.75, 0.000, 0.000, 0.000, 15:43:41.156, 1587847421156
41, 139.23, -200.23, 98.49, 22.45, 0.000, 0.000, 0.000, 15:43:41.167, 1587847421167
42, 115.04, -223.62, 80.88, 6.04, 0.000, 0.000, 0.000, 15:43:41.167, 1587847421167
43, 104.71, -233.23, 63.50, 8.92, 0.000, 0.000, 0.000, 15:43:41.181, 1587847421181
44, 149.02, -193.03, 99.69, 27.80, 0.000, 0.000, 0.000, 15:43:41.181, 1587847421181
45, 132.49, -207.17, 87.75, 11.71, 0.000, 0.000, 0.000, 15:43:41.197, 1587847421197
46, 105.11, -240.17, 56.31, 5.78, 0.000, 0.000, 0.000, 15:43:41.197, 1587847421197
47, 132.40, -207.69, 85.19, 20.59, 0.000, 0.000, 0.000, 15:43:41.198, 1587847421198
48, 150.58, -185.56, 102.49, 23.29, 0.000, 0.000, 0.000, 15:43:41.198, 1587847421198
49, 116.26, -222.21, 71.15, 12.09, 0.000, 0.000, 0.000, 15:43:41.211, 1587847421211
50, 125.64, -214.10, 74.08, 24.21, 0.000, 0.000, 0.000, 15:43:41.211, 1587847421211
51, 163.83, -182.04, 98.15, 22.98, 0.000, 0.000, 0.000, 15:43:41.226, 1587847421226
52, 133.35, -210.42, 81.20, 9.11, 0.000, 0.000, 0.000, 15:43:41.226, 1587847421226
53, 116.02, -219.56, 72.60, 10.14, 0.000, 0.000, 0.000, 15:43:41.243, 1587847421243
54, 149.17, -188.64, 92.26, 28.29, 0.000, 0.000, 0.000, 15:43:41.243, 1587847421243
55, 149.34, -198.81, 88.09, 12.48, 0.000, 0.000, 0.000, 15:43:41.245, 1587847421245
56, 115.96, -228.29, 57.41, 4.90, 0.000, 0.000, 0.000, 15:43:41.245, 1587847421245
57, 138.32, -209.37, 82.58, 20.36, 0.000, 0.000, 0.000, 15:43:41.257, 1587847421257
58, 153.89, -191.63, 99.15, 20.94, 0.000, 0.000, 0.000, 15:43:41.257, 1587847421257
59, 121.50, -228.09, 59.76, 6.93, 0.000, 0.000, 0.000, 15:43:41.258, 1587847421258
60, 137.41, -209.07, 60.21, 21.79, 0.000, 0.000, 0.000, 15:43:41.258, 1587847421258
61, 169.55, -178.66, 93.47, 23.63, 0.000, 0.000, 0.000, 15:43:41.271, 1587847421271
62, 120.07, -214.99, 83.36, 5.02, 0.000, 0.000, 0.000, 15:43:41.271, 1587847421271
63, 120.05, -217.14, 76.16, 12.47, 0.000, 0.000, 0.000, 15:43:41.287, 1587847421287
64, 149.78, -195.75, 92.99, 26.21, 0.000, 0.000, 0.000, 15:43:41.287, 1587847421287
65, 147.54, -201.81, 85.32, 13.36, 0.000, 0.000, 0.000, 15:43:41.288, 1587847421288
66, 123.84, -223.25, 63.12, 7.37, 0.000, 0.000, 0.000, 15:43:41.288, 1587847421288
67, 136.13, -209.94, 71.01, 19.89, 0.000, 0.000, 0.000, 15:43:41.301, 1587847421301
68, 122.73, -207.12, 93.50, 20.59, 0.000, 0.000, 0.000, 15:43:41.301, 1587847421301
69, 116.27, -212.33, 77.83, 5.56, 0.000, 0.000, 0.000, 15:43:41.317, 1587847421317
70, 138.93, -202.96, 68.15, 19.50, 0.000, 0.000, 0.000, 15:43:41.317, 1587847421317
71, 163.15, -194.53, 85.73, 24.57, 0.000, 0.000, 0.000, 15:43:41.322, 1587847421322
72, 154.41, -201.75, 79.11, 9.61, 0.000, 0.000, 0.000, 15:43:41.322, 1587847421322
73, 125.67, -230.15, 46.34, 9.12, 0.000, 0.000, 0.000, 15:43:41.331, 1587847421331
74, 162.81, -193.03, 95.70, 24.57, 0.000, 0.000, 0.000, 15:43:41.331, 1587847421331
75, 148.55, -204.92, 88.18, 11.98, 0.000, 0.000, 0.000, 15:43:41.349, 1587847421349
76, 113.35, -238.50, 53.32, 3.62, 0.000, 0.000, 0.000, 15:43:41.349, 1587847421349
77, 133.51, -208.30, 78.51, 19.17, 0.000, 0.000, 0.000, 15:43:41.350, 1587847421350
78, 149.31, -195.36, 90.86, 21.87, 0.000, 0.000, 0.000, 15:43:41.350, 1587847421350
79, 124.06, -223.58, 62.91, -2.52, 0.000, 0.000, 0.000, 15:43:41.361, 1587847421361
80, 132.67, -213.87, 72.00, 12.86, 0.000, 0.000, 0.000, 15:43:41.361, 1587847421361
81, 151.15, -198.39, 97.14, 23.55, 0.000, 0.000, 0.000, 15:43:41.378, 1587847421378
82, 123.38, -215.76, 71.56, 4.86, 0.000, 0.000, 0.000, 15:43:41.378, 1587847421378
83, 122.97, -225.86, 66.26, 11.83, 0.000, 0.000, 0.000, 15:43:41.381, 1587847421381
84, 150.04, -198.33, 90.30, 26.56, 0.000, 0.000, 0.000, 15:43:41.381, 1587847421381
85, 143.97, -209.12, 81.02, 11.43, 0.000, 0.000, 0.000, 15:43:41.391, 1587847421391
86, 117.85, -227.53, 56.74, 1.36, 0.000, 0.000, 0.000, 15:43:41.391, 1587847421391
87, 140.50, -208.10, 75.87, 22.71, 0.000, 0.000, 0.000, 15:43:41.406, 1587847421406
88, 145.74, -200.26, 94.10, 22.30, 0.000, 0.000, 0.000, 15:43:41.406, 1587847421406
89, 139.56, -212.62, 75.77, 1.53, 0.000, 0.000, 0.000, 15:43:41.408, 1587847421408
90, 116.13, -226.26, 60.21, 17.08, 0.000, 0.000, 0.000, 15:43:41.408, 1587847421408
91, 143.90, -208.02, 87.98, 23.76, 0.000, 0.000, 0.000, 15:43:41.422, 1587847421422
92, 139.69, -213.46, 69.56, 9.35, 0.000, 0.000, 0.000, 15:43:41.422, 1587847421422
93, 127.44, -229.46, 56.56, 9.04, 0.000, 0.000, 0.000, 15:43:41.437, 1587847421437
94, 131.04, -204.42, 94.37, 24.49, 0.000, 0.000, 0.000, 15:43:41.437, 1587847421437
95, 122.72, -203.56, 89.45, 12.18, 0.000, 0.000, 0.000, 15:43:41.438, 1587847421438
96, 124.50, -223.13, 62.75, 7.42, 0.000, 0.000, 0.000, 15:43:41.438, 1587847421438
97, 153.23, -199.97, 89.48, 21.06, 0.000, 0.000, 0.000, 15:43:41.451, 1587847421451
98, 148.40, -189.60, 92.73, 23.19, 0.000, 0.000, 0.000, 15:43:41.451, 1587847421451
99, 111.04, -225.84, 67.53, 7.65, 0.000, 0.000, 0.000, 15:43:41.467, 1587847421467
100, 118.65, -223.71, 68.92, 9.26, 0.000, 0.000, 0.000, 15:43:41.467, 1587847421467
101, 148.60, -197.25, 87.30, 26.47, 0.000, 0.000, 0.000, 15:43:41.468, 1587847421468
102, 136.47, -216.99, 79.96, 7.13, 0.000, 0.000, 0.000, 15:43:41.468, 1587847421468
103, 117.37, -235.74, 69.52, 9.95, 0.000, 0.000, 0.000, 15:43:41.482, 1587847421482
104, 112.97, -209.97, 87.26, 22.68, 0.000, 0.000, 0.000, 15:43:41.482, 1587847421482
105, 94.85, -245.97, 57.58, 13.95, 0.000, 0.000, 0.000, 15:43:41.497, 1587847421497
106, 115.62, -225.09, 63.65, 3.96, 0.000, 0.000, 0.000, 15:43:41.497, 1587847421497
107, 136.10, -212.54, 81.30, 18.79, 0.000, 0.000, 0.000, 15:43:41.497, 1587847421497
108, 140.13, -185.12, 98.86, 19.01, 0.000, 0.000, 0.000, 15:43:41.497, 1587847421497
109, 82.93, -244.25, 17.53, 4.55, 0.000, 0.000, 0.000, 15:43:41.511, 1587847421511
110, 112.60, -187.00, 104.02, 11.61, 0.000, 0.000, 0.000, 15:43:41.511, 1587847421511
111, 109.41, -231.72, 66.82, 24.44, 0.000, 0.000, 0.000, 15:43:41.526, 1587847421526
112, 153.83, -238.55, 21.87, 6.95, 0.000, 0.000, 0.000, 15:43:41.526, 1587847421526
113, 144.58, -153.77, 126.23, 10.42, 0.000, 0.000, 0.000, 15:43:41.527, 1587847421527
114, -55.01, -308.71, 21.41, 21.40, 0.000, 0.000, 0.000, 15:43:41.527, 1587847421527
115, -22.35, -290.26, 177.29, 9.86, 0.000, 0.000, 0.000, 15:43:41.541, 1587847421541
116, 198.31, -156.82, 72.15, 4.47, 0.000, 0.000, 0.000, 15:43:41.541, 1587847421541
117, -90.81, -387.59, 34.83, 22.50, 0.000, 0.000, 0.000, 15:43:41.556, 1587847421556
118, 371.64, -156.50, 235.87, 20.74, 0.000, 0.000, 0.000, 15:43:41.556, 1587847421556
119, 273.36, -208.97, -42.89, 9.12, 0.000, 0.000, 0.000, 15:43:41.560, 1587847421560
120, 45.87, -278.87, 100.80, 16.92, 0.000, 0.000, 0.000, 15:43:41.560, 1587847421560
121, 58.39, -201.97, 128.90, 23.79, 0.000, 0.000, 0.000, 15:43:41.571, 1587847421571
122, 201.11, -162.73, 8.10, 8.84, 0.000, 0.000, 0.000, 15:43:41.571, 1587847421571
123, 295.34, -221.02, 136.07, 11.80, 0.000, 0.000, 0.000, 15:43:41.587, 1587847421587
124, 206.91, -174.48, 227.08, 25.00, 0.000, 0.000, 0.000, 15:43:41.587, 1587847421587
125, 123.56, -182.63, 170.68, 16.28, 0.000, 0.000, 0.000, 15:43:41.590, 1587847421590
126, 71.78, -220.88, 98.17, 9.65, 0.000, 0.000, 0.000, 15:43:41.590, 1587847421590
127, 109.28, -193.09, 77.84, 24.41, 0.000, 0.000, 0.000, 15:43:41.602, 1587847421602
128, -0.20, -191.18, 64.30, 17.79, 0.000, 0.000, 0.000, 15:43:41.602, 1587847421602
129, 76.08, -119.81, 150.88, 0.84, 0.000, 0.000, 0.000, 15:43:41.626, 1587847421626
130, 152.81, -106.55, 105.77, 18.26, 0.000, 0.000, 0.000, 15:43:41.626, 1587847421626
131, 161.38, -135.43, -31.26, 25.76, 0.000, 0.000, 0.000, 15:43:41.628, 1587847421628
132, 64.55, -135.59, 120.35, 9.64, 0.000, 0.000, 0.000, 15:43:41.628, 1587847421628
133, 94.56, -98.34, 140.49, 4.90, 0.000, 0.000, 0.000, 15:43:41.631, 1587847421631
134, 142.14, -82.93, 88.21, 25.67, 0.000, 0.000, 0.000, 15:43:41.631, 1587847421631
135, 90.02, -87.12, 144.76, 11.03, 0.000, 0.000, 0.000, 15:43:41.647, 1587847421647
136, 53.30, -127.16, 80.79, 4.42, 0.000, 0.000, 0.000, 15:43:41.647, 1587847421647
137, 79.13, -86.63, 21.16, 26.91, 0.000, 0.000, 0.000, 15:43:41.653, 1587847421653
138, 121.55, -59.17, 166.33, 23.57, 0.000, 0.000, 0.000, 15:43:41.653, 1587847421653
139, 75.43, -105.78, 109.69, 4.90, 0.000, 0.000, 0.000, 15:43:41.661, 1587847421661
140, 76.25, -105.27, 98.21, 17.73, 0.000, 0.000, 0.000, 15:43:41.661, 1587847421661
141, 101.01, -88.52, 115.67, 26.06, 0.000, 0.000, 0.000, 15:43:41.676, 1587847421676
142, 83.33, -113.03, 99.56, 8.16, 0.000, 0.000, 0.000, 15:43:41.676, 1587847421676
143, 70.01, -127.09, 82.47, 7.53, 0.000, 0.000, 0.000, 15:43:41.677, 1587847421677
144, 101.34, -98.78, 119.73, 24.93, 0.000, 0.000, 0.000, 15:43:41.677, 1587847421677
145, 84.83, -123.75, 107.00, 13.47, 0.000, 0.000, 0.000, 15:43:41.708, 1587847421708
146, 75.48, -137.93, 87.38, 9.80, 0.000, 0.000, 0.000, 15:43:41.708, 1587847421708
147, 101.00, -128.95, 100.79, 21.56, 0.000, 0.000, 0.000, 15:43:41.709, 1587847421709
148, 120.98, -109.51, 123.39, 20.95, 0.000, 0.000, 0.000, 15:43:41.709, 1587847421709
149, 101.61, -139.88, 99.96, 11.23, 0.000, 0.000, 0.000, 15:43:41.710, 1587847421710
150, 103.69, -148.74, 100.24, 17.00, 0.000, 0.000, 0.000, 15:43:41.710, 1587847421710
151, 116.37, -140.71, 127.25, 29.50, 0.000, 0.000, 0.000, 15:43:41.722, 1587847421722
152, 122.14, -150.41, 114.22, 6.81, 0.000, 0.000, 0.000, 15:43:41.722, 1587847421722
153, 94.61, -186.22, 82.26, 9.65, 0.000, 0.000, 0.000, 15:43:41.737, 1587847421737
154, 129.46, -162.19, 116.73, 29.21, 0.000, 0.000, 0.000, 15:43:41.737, 1587847421737
155, 144.66, -156.25, 128.06, 13.17, 0.000, 0.000, 0.000, 15:43:41.739, 1587847421739
156, 113.99, -192.21, 92.69, 9.30, 0.000, 0.000, 0.000, 15:43:41.739, 1587847421739
157, 127.18, -184.46, 113.58, 26.67, 0.000, 0.000, 0.000, 15:43:41.751, 1587847421751
158, 140.42, -182.64, 119.55, 19.76, 0.000, 0.000, 0.000, 15:43:41.751, 1587847421751
159, 119.25, -211.39, 87.56, 5.72, 0.000, 0.000, 0.000, 15:43:41.766, 1587847421766
160, 127.78, -209.80, 85.80, 11.69, 0.000, 0.000, 0.000, 15:43:41.766, 1587847421766
161, 164.24, -176.98, 117.26, 26.60, 0.000, 0.000, 0.000, 15:43:41.767, 1587847421767
162, 143.33, -192.78, 98.86, 8.39, 0.000, 0.000, 0.000, 15:43:41.767, 1587847421767
163, 122.96, -230.18, 59.66, 11.72, 0.000, 0.000, 0.000, 15:43:41.780, 1587847421780
164, 160.17, -192.66, 99.39, 30.28, 0.000, 0.000, 0.000, 15:43:41.780, 1587847421780
165, 159.25, -197.47, 92.02, 18.13, 0.000, 0.000, 0.000, 15:43:41.796, 1587847421796
166, 127.17, -230.24, 67.70, 8.00, 0.000, 0.000, 0.000, 15:43:41.796, 1587847421796
167, 147.78, -211.06, 92.21, 21.22, 0.000, 0.000, 0.000, 15:43:41.797, 1587847421797
168, 173.91, -189.86, 102.19, 23.32, 0.000, 0.000, 0.000, 15:43:41.797, 1587847421797
169, 137.33, -225.84, 67.60, 3.49, 0.000, 0.000, 0.000, 15:43:41.811, 1587847421811
170, 138.05, -223.01, 67.76, 19.34, 0.000, 0.000, 0.000, 15:43:41.811, 1587847421811
171, 175.15, -192.33, 108.10, 23.56, 0.000, 0.000, 0.000, 15:43:41.827, 1587847421827
172, 149.51, -220.62, 78.46, 10.63, 0.000, 0.000, 0.000, 15:43:41.827, 1587847421827
173, 138.60, -234.97, 58.90, 11.64, 0.000, 0.000, 0.000, 15:43:41.828, 1587847421828
174, 162.35, -207.86, 89.67, 26.54, 0.000, 0.000, 0.000, 15:43:41.828, 1587847421828
175, 158.86, -220.12, 86.73, 13.56, 0.000, 0.000, 0.000, 15:43:41.842, 1587847421842
176, 142.22, -233.37, 73.93, 7.61, 0.000, 0.000, 0.000, 15:43:41.842, 1587847421842
177, 151.42, -223.02, 79.95, 16.67, 0.000, 0.000, 0.000, 15:43:41.856, 1587847421856
178, 180.20, -200.03, 103.29, 22.41, 0.000, 0.000, 0.000, 15:43:41.856, 1587847421856
179, 136.91, -243.28, 66.75, 8.58, 0.000, 0.000, 0.000, 15:43:41.857, 1587847421857
180, 138.86, -234.67, 63.41, 14.82, 0.000, 0.000, 0.000, 15:43:41.857, 1587847421857
181, 161.95, -222.35, 84.50, 26.07, 0.000, 0.000, 0.000, 15:43:41.887, 1587847421887
182, 139.80, -248.37, 79.23, 9.23, 0.000, 0.000, 0.000, 15:43:41.887, 1587847421887
183, 120.90, -245.72, 57.82, 9.71, 0.000, 0.000, 0.000, 15:43:41.889, 1587847421889
184, 137.75, -213.27, 108.94, 25.48, 0.000, 0.000, 0.000, 15:43:41.889, 1587847421889
185, 159.69, -224.68, 85.77, 12.68, 0.000, 0.000, 0.000, 15:43:41.889, 1587847421889
186, 153.21, -236.99, 79.81, 5.57, 0.000, 0.000, 0.000, 15:43:41.889, 1587847421889
187, 154.86, -231.07, 83.20, 26.00, 0.000, 0.000, 0.000, 15:43:41.901, 1587847421901
188, 165.43, -225.15, 95.51, 24.24, 0.000, 0.000, 0.000, 15:43:41.901, 1587847421901
189, 130.93, -255.96, 72.26, 8.03, 0.000, 0.000, 0.000, 15:43:41.916, 1587847421916
190, 141.65, -247.64, 79.01, 20.83, 0.000, 0.000, 0.000, 15:43:41.916, 1587847421916
191, 164.39, -221.76, 103.03, 23.58, 0.000, 0.000, 0.000, 15:43:41.917, 1587847421917
192, 141.01, -242.82, 80.26, 11.12, 0.000, 0.000, 0.000, 15:43:41.917, 1587847421917
193, 128.18, -252.15, 69.78, 11.16, 0.000, 0.000, 0.000, 15:43:41.931, 1587847421931
194, 158.97, -231.57, 93.11, 29.92, 0.000, 0.000, 0.000, 15:43:41.931, 1587847421931
195, 162.77, -235.14, 89.48, 16.72, 0.000, 0.000, 0.000, 15:43:41.948, 1587847421948
196, 131.87, -256.36, 69.25, 5.74, 0.000, 0.000, 0.000, 15:43:41.948, 1587847421948
197, 149.34, -239.61, 86.00, 20.57, 0.000, 0.000, 0.000, 15:43:41.949, 1587847421949
198, 155.81, -220.78, 100.95, 16.90, 0.000, 0.000, 0.000, 15:43:41.949, 1587847421949
199, 128.07, -255.07, 64.47, 2.96, 0.000, 0.000, 0.000, 15:43:41.963, 1587847421963
200, 141.44, -246.05, 60.33, 13.29, 0.000, 0.000, 0.000, 15:43:41.963, 1587847421963
0, 156.06, -238.93, 91.66, 21.73, 0.000, 0.000, 0.000, 15:43:41.965, 1587847421965
1, 147.02, -235.53, 88.39, 3.91, 0.000, 0.000, 0.000, 15:43:41.976, 1587847421976
2, 146.80, -245.03, 83.17, 8.92, 0.000, 0.000, 0.000, 15:43:41.976, 1587847421976
3, 151.95, -244.38, 85.65, 27.26, 0.000, 0.000, 0.000, 15:43:41.991, 1587847421991
4, 154.16, -233.51, 94.83, 15.32, 0.000, 0.000, 0.000, 15:43:41.991, 1587847421991
5, 132.08, -255.02, 71.39, 7.98, 0.000, 0.000, 0.000, 15:43:41.992, 1587847421992
6, 158.08, -231.48, 88.69, 23.69, 0.000, 0.000, 0.000, 15:43:41.992, 1587847421992
7, 165.58, -233.87, 96.73, 13.37, 0.000, 0.000, 0.000, 15:43:42.012, 1587847422012
8, 130.91, -258.99, 71.42, 7.56, 0.000, 0.000, 0.000, 15:43:42.012, 1587847422012
9, 133.58, -249.96, 78.87, 18.95, 0.000, 0.000, 0.000, 15:43:42.022, 1587847422022
10, 159.13, -228.58, 104.29, 23.52, 0.000, 0.000, 0.000, 15:43:42.022, 1587847422022
11, 136.93, -254.72, 75.30, 7.47, 0.000, 0.000, 0.000, 15:43:42.023, 1587847422023
12, 132.63, -259.88, 65.09, 13.59, 0.000, 0.000, 0.000, 15:43:42.023, 1587847422023
13, 157.27, -238.54, 94.63, 20.70, 0.000, 0.000, 0.000, 15:43:42.036, 1587847422036
14, 154.08, -236.35, 95.01, 9.41, 0.000, 0.000, 0.000, 15:43:42.036, 1587847422036
15, 130.37, -262.40, 72.49, 9.29, 0.000, 0.000, 0.000, 15:43:42.052, 1587847422052
16, 136.85, -254.68, 84.25, 23.13, 0.000, 0.000, 0.000, 15:43:42.052, 1587847422052
17, 156.89, -233.84, 110.15, 19.33, 0.000, 0.000, 0.000, 15:43:42.053, 1587847422053
18, 129.30, -256.30, 86.71, 1.02, 0.000, 0.000, 0.000, 15:43:42.053, 1587847422053
19, 125.10, -268.35, 73.77, 13.40, 0.000, 0.000, 0.000, 15:43:42.066, 1587847422066
20, 159.80, -232.82, 104.16, 25.71, 0.000, 0.000, 0.000, 15:43:42.066, 1587847422066
21, 133.61, -255.64, 84.89, 9.74, 0.000, 0.000, 0.000, 15:43:42.084, 1587847422084
22, 129.23, -265.03, 73.14, 11.13, 0.000, 0.000, 0.000, 15:43:42.084, 1587847422084
23, 152.06, -244.47, 98.72, 24.49, 0.000, 0.000, 0.000, 15:43:42.086, 1587847422086
24, 143.36, -243.76, 94.94, 14.02, 0.000, 0.000, 0.000, 15:43:42.086, 1587847422086
25, 124.52, -274.54, 71.91, 9.98, 0.000, 0.000, 0.000, 15:43:42.096, 1587847422096
26, 140.79, -256.60, 98.33, 26.03, 0.000, 0.000, 0.000, 15:43:42.096, 1587847422096
27, 157.57, -235.30, 108.78, 23.20, 0.000, 0.000, 0.000, 15:43:42.112, 1587847422112
28, 137.88, -259.62, 88.87, 3.67, 0.000, 0.000, 0.000, 15:43:42.112, 1587847422112
29, 126.12, -263.57, 80.28, 16.42, 0.000, 0.000, 0.000, 15:43:42.113, 1587847422113
30, 166.55, -230.61, 109.86, 29.42, 0.000, 0.000, 0.000, 15:43:42.113, 1587847422113
31, 133.08, -260.93, 84.99, 9.78, 0.000, 0.000, 0.000, 15:43:42.125, 1587847422125
32, 124.08, -270.63, 78.15, 11.22, 0.000, 0.000, 0.000, 15:43:42.125, 1587847422125
33, 155.42, -247.77, 97.93, 26.57, 0.000, 0.000, 0.000, 15:43:42.143, 1587847422143
34, 157.19, -246.65, 104.11, 13.18, 0.000, 0.000, 0.000, 15:43:42.143, 1587847422143
35, 127.98, -272.29, 75.44, 9.42, 0.000, 0.000, 0.000, 15:43:42.143, 1587847422143
36, 151.58, -260.64, 90.76, 21.45, 0.000, 0.000, 0.000, 15:43:42.143, 1587847422143
37, 155.81, -249.45, 111.75, 19.79, 0.000, 0.000, 0.000, 15:43:42.156, 1587847422156
38, 126.64, -269.51, 95.04, 4.76, 0.000, 0.000, 0.000, 15:43:42.156, 1587847422156
39, 112.71, -270.14, 68.85, 12.17, 0.000, 0.000, 0.000, 15:43:42.172, 1587847422172
40, 122.07, -271.36, 96.98, 22.68, 0.000, 0.000, 0.000, 15:43:42.172, 1587847422172
41, 165.70, -235.63, 102.05, 6.62, 0.000, 0.000, 0.000, 15:43:42.173, 1587847422173
42, 152.23, -254.25, 68.01, 9.47, 0.000, 0.000, 0.000, 15:43:42.173, 1587847422173
43, 171.42, -229.36, 130.89, 26.13, 0.000, 0.000, 0.000, 15:43:42.186, 1587847422186
44, 134.89, -267.92, 97.16, 15.98, 0.000, 0.000, 0.000, 15:43:42.186, 1587847422186
45, 17.64, -302.32, 75.78, 3.40, 0.000, 0.000, 0.000, 15:43:42.202, 1587847422202
46, 128.80, -239.68, 105.50, 20.11, 0.000, 0.000, 0.000, 15:43:42.202, 1587847422202
47, 162.73, -273.05, -0.17, 16.31, 0.000, 0.000, 0.000, 15:43:42.203, 1587847422203
48, 179.31, -204.04, 133.71, 3.62, 0.000, 0.000, 0.000, 15:43:42.203, 1587847422203
49, 131.38, -255.16, 141.64, 18.91, 0.000, 0.000, 0.000, 15:43:42.216, 1587847422216
50, 56.69, -267.18, 118.82, 21.50, 0.000, 0.000, 0.000, 15:43:42.216, 1587847422216
51, 121.36, -267.71, 102.15, 11.17, 0.000, 0.000, 0.000, 15:43:42.231, 1587847422231
52, 108.27, -249.00, 47.96, 14.76, 0.000, 0.000, 0.000, 15:43:42.231, 1587847422231
53, 209.67, -219.69, 139.00, 27.35, 0.000, 0.000, 0.000, 15:43:42.232, 1587847422232
54, 92.68, -306.73, 83.19, 15.15, 0.000, 0.000, 0.000, 15:43:42.232, 1587847422232
55, 37.74, -307.92, 142.54, 3.13, 0.000, 0.000, 0.000, 15:43:42.263, 1587847422263
56, 179.84, -228.64, 122.63, 23.21, 0.000, 0.000, 0.000, 15:43:42.263, 1587847422263
57, 300.01, -235.93, 123.88, 17.48, 0.000, 0.000, 0.000, 15:43:42.264, 1587847422264
58, 80.59, -285.97, 68.22, 7.64, 0.000, 0.000, 0.000, 15:43:42.264, 1587847422264
59, 93.60, -381.91, -75.82, 17.60, 0.000, 0.000, 0.000, 15:43:42.264, 1587847422264
60, 117.64, -295.87, 142.24, 22.25, 0.000, 0.000, 0.000, 15:43:42.264, 1587847422264
61, 296.05, -164.18, 290.67, 12.36, 0.000, 0.000, 0.000, 15:43:42.276, 1587847422276
62, 107.44, -280.84, 179.57, 12.46, 0.000, 0.000, 0.000, 15:43:42.276, 1587847422276
63, -47.32, -388.23, 100.07, 24.39, 0.000, 0.000, 0.000, 15:43:42.292, 1587847422292
64, 140.89, -234.83, -24.06, 13.20, 0.000, 0.000, 0.000, 15:43:42.292, 1587847422292
65, 259.56, -187.75, 41.90, 8.71, 0.000, 0.000, 0.000, 15:43:42.293, 1587847422293
66, 260.49, -184.78, 116.12, 25.45, 0.000, 0.000, 0.000, 15:43:42.293, 1587847422293
67, 121.57, -255.28, 250.68, 24.32, 0.000, 0.000, 0.000, 15:43:42.306, 1587847422306
68, 169.65, -212.24, 117.52, 5.68, 0.000, 0.000, 0.000, 15:43:42.306, 1587847422306
69, 141.24, -227.30, 112.94, 15.49, 0.000, 0.000, 0.000, 15:43:42.322, 1587847422322
70, 139.81, -217.02, 138.56, 29.15, 0.000, 0.000, 0.000, 15:43:42.322, 1587847422322
71, 67.10, -237.38, 144.79, 13.44, 0.000, 0.000, 0.000, 15:43:42.323, 1587847422323
72, 61.72, -218.78, 148.82, 13.76, 0.000, 0.000, 0.000, 15:43:42.323, 1587847422323
73, 107.27, -182.80, 166.43, 26.78, 0.000, 0.000, 0.000, 15:43:42.352, 1587847422352
74, 143.49, -205.64, 127.06, 16.70, 0.000, 0.000, 0.000, 15:43:42.352, 1587847422352
75, 119.14, -207.51, 112.61, 10.61, 0.000, 0.000, 0.000, 15:43:42.353, 1587847422353
76, 130.44, -208.75, 33.00, 28.63, 0.000, 0.000, 0.000, 15:43:42.353, 1587847422353
77, 156.95, -187.18, 99.04, 22.42, 0.000, 0.000, 0.000, 15:43:42.354, 1587847422354
78, 90.47, -205.56, 168.91, 6.26, 0.000, 0.000, 0.000, 15:43:42.355, 1587847422355
79, 70.01, -215.47, 134.78, 14.76, 0.000, 0.000, 0.000, 15:43:42.366, 1587847422366
80, 111.72, -184.72, 150.98, 23.31, 0.000, 0.000, 0.000, 15:43:42.366, 1587847422366
81, 94.33, -206.06, 118.90, 9.46, 0.000, 0.000, 0.000, 15:43:42.382, 1587847422382
82, 92.11, -220.27, 106.51, 11.87, 0.000, 0.000, 0.000, 15:43:42.382, 1587847422382
83, 113.37, -196.55, 125.34, 20.98, 0.000, 0.000, 0.000, 15:43:42.384, 1587847422384
84, 101.67, -210.29, 124.14, 13.38, 0.000, 0.000, 0.000, 15:43:42.384, 1587847422384
85, 87.89, -222.31, 122.14, 6.95, 0.000, 0.000, 0.000, 15:43:42.396, 1587847422396
86, 100.17, -218.03, 131.51, 22.42, 0.000, 0.000, 0.000, 15:43:42.396, 1587847422396
87, 114.60, -208.88, 142.93, 20.03, 0.000, 0.000, 0.000, 15:43:42.412, 1587847422412
88, 103.71, -233.29, 128.08, 2.69, 0.000, 0.000, 0.000, 15:43:42.412, 1587847422412
89, 108.06, -240.23, 112.78, 19.04, 0.000, 0.000, 0.000, 15:43:42.414, 1587847422414
90, 133.17, -227.50, 137.14, 21.42, 0.000, 0.000, 0.000, 15:43:42.414, 1587847422414
91, 116.11, -246.09, 125.25, 1.56, 0.000, 0.000, 0.000, 15:43:42.426, 1587847422426
92, 108.29, -263.39, 107.26, 10.15, 0.000, 0.000, 0.000, 15:43:42.426, 1587847422426
93, 135.62, -242.74, 133.07, 22.97, 0.000, 0.000, 0.000, 15:43:42.444, 1587847422444
94, 142.54, -246.07, 134.21, 19.38, 0.000, 0.000, 0.000, 15:43:42.444, 1587847422444
95, 119.00, -278.33, 104.57, 8.92, 0.000, 0.000, 0.000, 15:43:42.446, 1587847422446
96, 135.26, -259.59, 113.95, 23.11, 0.000, 0.000, 0.000, 15:43:42.446, 1587847422446
97, 152.91, -255.44, 135.77, 19.77, 0.000, 0.000, 0.000, 15:43:42.456, 1587847422456
98, 137.68, -275.28, 112.11, 10.61, 0.000, 0.000, 0.000, 15:43:42.456, 1587847422456
99, 129.12, -282.61, 97.22, 20.60, 0.000, 0.000, 0.000, 15:43:42.473, 1587847422473
100, 165.26, -254.29, 125.34, 27.20, 0.000, 0.000, 0.000, 15:43:42.473, 1587847422473
101, 147.99, -275.90, 104.91, 10.92, 0.000, 0.000, 0.000, 15:43:42.474, 1587847422474
102, 140.14, -286.18, 90.65, 9.81, 0.000, 0.000, 0.000, 15:43:42.474, 1587847422474
103, 172.31, -251.44, 115.78, 28.88, 0.000, 0.000, 0.000, 15:43:42.486, 1587847422486
104, 168.68, -262.38, 107.88, 16.07, 0.000, 0.000, 0.000, 15:43:42.486, 1587847422486
105, 140.98, -288.32, 86.30, 7.50, 0.000, 0.000, 0.000, 15:43:42.502, 1587847422502
106, 156.05, -262.24, 98.13, 21.42, 0.000, 0.000, 0.000, 15:43:42.502, 1587847422502
107, 162.53, -260.12, 100.84, 16.69, 0.000, 0.000, 0.000, 15:43:42.503, 1587847422503
108, 157.32, -283.56, 88.86, 9.68, 0.000, 0.000, 0.000, 15:43:42.503, 1587847422503
109, 153.44, -278.55, 97.27, 17.97, 0.000, 0.000, 0.000, 15:43:42.532, 1587847422532
110, 163.76, -265.77, 109.15, 28.24, 0.000, 0.000, 0.000, 15:43:42.532, 1587847422532
111, 155.97, -266.75, 104.11, 3.93, 0.000, 0.000, 0.000, 15:43:42.533, 1587847422533
112, 147.70, -280.82, 88.61, 10.27, 0.000, 0.000, 0.000, 15:43:42.533, 1587847422533
113, 148.97, -275.42, 89.32, 20.48, 0.000, 0.000, 0.000, 15:43:42.534, 1587847422534
114, 155.25, -273.69, 90.82, 14.07, 0.000, 0.000, 0.000, 15:43:42.534, 1587847422534
115, 135.13, -290.47, 78.29, 9.73, 0.000, 0.000, 0.000, 15:43:42.546, 1587847422546
116, 143.85, -266.83, 117.60, 23.89, 0.000, 0.000, 0.000, 15:43:42.546, 1587847422546
117, 170.32, -246.70, 131.93, 23.43, 0.000, 0.000, 0.000, 15:43:42.561, 1587847422561
118, 151.60, -278.73, 88.81, 5.02, 0.000, 0.000, 0.000, 15:43:42.561, 1587847422561
119, 137.03, -285.69, 77.81, 14.01, 0.000, 0.000, 0.000, 15:43:42.562, 1587847422562
120, 165.46, -253.82, 104.41, 23.99, 0.000, 0.000, 0.000, 15:43:42.562, 1587847422562
121, 153.44, -267.39, 101.25, 11.99, 0.000, 0.000, 0.000, 15:43:42.576, 1587847422576
122, 129.58, -297.14, 83.33, 14.03, 0.000, 0.000, 0.000, 15:43:42.576, 1587847422576
123, 148.55, -270.13, 106.22, 26.98, 0.000, 0.000, 0.000, 15:43:42.591, 1587847422591
124, 158.86, -262.29, 114.54, 12.85, 0.000, 0.000, 0.000, 15:43:42.591, 1587847422591
125, 129.71, -295.29, 79.09, 4.57, 0.000, 0.000, 0.000, 15:43:42.593, 1587847422593
126, 134.02, -285.20, 94.11, 21.98, 0.000, 0.000, 0.000, 15:43:42.593, 1587847422593
127, 151.87, -257.12, 123.42, 16.14, 0.000, 0.000, 0.000, 15:43:42.606, 1587847422606
128, 139.11, -276.86, 90.12, 6.71, 0.000, 0.000, 0.000, 15:43:42.606, 1587847422606
129, 136.77, -275.66, 87.16, 16.16, 0.000, 0.000, 0.000, 15:43:42.625, 1587847422625
130, 173.25, -248.27, 127.95, 22.82, 0.000, 0.000, 0.000, 15:43:42.625, 1587847422625
131, 158.52, -266.47, 96.34, 12.04, 0.000, 0.000, 0.000, 15:43:42.626, 1587847422626
132, 141.47, -283.46, 76.04, 12.89, 0.000, 0.000, 0.000, 15:43:42.626, 1587847422626
133, 170.39, -249.31, 117.01, 23.63, 0.000, 0.000, 0.000, 15:43:42.636, 1587847422636
134, 153.84, -268.93, 100.84, 14.02, 0.000, 0.000, 0.000, 15:43:42.636, 1587847422636
135, 130.47, -286.84, 70.55, 7.43, 0.000, 0.000, 0.000, 15:43:42.652, 1587847422652
136, 137.22, -271.47, 100.07, 17.99, 0.000, 0.000, 0.000, 15:43:42.652, 1587847422652
137, 146.43, -253.68, 105.50, 21.92, 0.000, 0.000, 0.000, 15:43:42.655, 1587847422655
138, 124.32, -287.50, 90.84, 1.62, 0.000, 0.000, 0.000, 15:43:42.656, 1587847422656
139, 143.88, -278.91, 91.10, 16.63, 0.000, 0.000, 0.000, 15:43:42.666, 1587847422666
140, 162.30, -252.00, 123.00, 23.94, 0.000, 0.000, 0.000, 15:43:42.666, 1587847422666
141, 134.86, -278.00, 93.16, 11.14, 0.000, 0.000, 0.000, 15:43:42.687, 1587847422687
142, 119.89, -293.05, 82.06, 8.83, 0.000, 0.000, 0.000, 15:43:42.687, 1587847422687
143, 126.29, -264.58, 81.30, 23.92, 0.000, 0.000, 0.000, 15:43:42.687, 1587847422687
144, 143.30, -265.11, 108.74, 16.00, 0.000, 0.000, 0.000, 15:43:42.687, 1587847422687
145, 138.10, -281.31, 93.05, 4.35, 0.000, 0.000, 0.000, 15:43:42.696, 1587847422696
146, 156.37, -264.38, 105.04, 21.23, 0.000, 0.000, 0.000, 15:43:42.696, 1587847422696
147, 159.82, -243.47, 129.40, 18.16, 0.000, 0.000, 0.000, 15:43:42.712, 1587847422712
148, 114.80, -290.21, 80.87, 5.18, 0.000, 0.000, 0.000, 15:43:42.712, 1587847422712
149, 140.05, -270.61, 98.35, 17.73, 0.000, 0.000, 0.000, 15:43:42.712, 1587847422712
150, 166.32, -254.35, 105.05, 23.79, 0.000, 0.000, 0.000, 15:43:42.712, 1587847422712
151, 149.91, -273.55, 94.10, 10.31, 0.000, 0.000, 0.000, 15:43:42.726, 1587847422726
152, 133.32, -288.38, 73.20, 8.02, 0.000, 0.000, 0.000, 15:43:42.726, 1587847422726
153, 168.19, -253.94, 120.62, 26.15, 0.000, 0.000, 0.000, 15:43:42.742, 1587847422742
154, 149.29, -263.54, 105.60, 14.47, 0.000, 0.000, 0.000, 15:43:42.742, 1587847422742
155, 114.56, -290.83, 72.52, 3.40, 0.000, 0.000, 0.000, 15:43:42.742, 1587847422742
156, 131.79, -269.80, 95.66, 19.07, 0.000, 0.000, 0.000, 15:43:42.742, 1587847422742
157, 166.42, -251.77, 116.84, 21.42, 0.000, 0.000, 0.000, 15:43:42.756, 1587847422756
158, 127.76, -285.37, 83.80, 3.26, 0.000, 0.000, 0.000, 15:43:42.756, 1587847422756
159, 133.08, -277.30, 94.52, 16.33, 0.000, 0.000, 0.000, 15:43:42.772, 1587847422772
160, 149.70, -255.40, 113.87, 26.22, 0.000, 0.000, 0.000, 15:43:42.772, 1587847422772
161, 118.78, -283.88, 84.11, 8.91, 0.000, 0.000, 0.000, 15:43:42.773, 1587847422773
162, 118.56, -302.54, 60.47, 10.19, 0.000, 0.000, 0.000, 15:43:42.773, 1587847422773
163, 159.50, -256.13, 100.66, 22.55, 0.000, 0.000, 0.000, 15:43:42.786, 1587847422786
164, 156.04, -248.04, 115.79, 10.91, 0.000, 0.000, 0.000, 15:43:42.786, 1587847422786
165, 106.21, -275.07, 104.60, 4.47, 0.000, 0.000, 0.000, 15:43:42.801, 1587847422801
166, 137.39, -254.74, 116.95, 19.65, 0.000, 0.000, 0.000, 15:43:42.801, 1587847422801
167, 135.18, -268.44, 98.59, 20.70, 0.000, 0.000, 0.000, 15:43:42.805, 1587847422805
168, 122.46, -287.60, 78.14, 4.91, 0.000, 0.000, 0.000, 15:43:42.805, 1587847422805
169, 123.77, -283.49, 83.19, 15.88, 0.000, 0.000, 0.000, 15:43:42.815, 1587847422815
170, 136.71, -269.41, 112.04, 25.30, 0.000, 0.000, 0.000, 15:43:42.815, 1587847422815
171, 116.90, -266.95, 113.78, 9.80, 0.000, 0.000, 0.000, 15:43:42.832, 1587847422832
172, 129.80, -278.25, 80.00, 12.67, 0.000, 0.000, 0.000, 15:43:42.832, 1587847422832
173, 154.12, -274.20, 75.91, 22.14, 0.000, 0.000, 0.000, 15:43:42.832, 1587847422832
174, 165.36, -257.05, 85.20, 16.93, 0.000, 0.000, 0.000, 15:43:42.832, 1587847422832
175, 130.65, -267.47, 91.36, 2.54, 0.000, 0.000, 0.000, 15:43:42.862, 1587847422862
176, 125.59, -277.71, 107.14, 24.31, 0.000, 0.000, 0.000, 15:43:42.862, 1587847422862
177, 114.35, -257.44, 140.39, 22.39, 0.000, 0.000, 0.000, 15:43:42.863, 1587847422863
178, 122.37, -269.93, 89.17, 1.97, 0.000, 0.000, 0.000, 15:43:42.863, 1587847422863
179, 110.04, -282.14, 48.20, 10.71, 0.000, 0.000, 0.000, 15:43:42.863, 1587847422863
180, 133.04, -265.24, 103.52, 24.58, 0.000, 0.000, 0.000, 15:43:42.863, 1587847422863
181, 175.38, -255.15, 116.08, 11.50, 0.000, 0.000, 0.000, 15:43:42.876, 1587847422876
182, 120.91, -278.24, 77.26, 11.94, 0.000, 0.000, 0.000, 15:43:42.876, 1587847422876
183, 116.25, -247.29, 99.57, 24.03, 0.000, 0.000, 0.000, 15:43:42.908, 1587847422908
184, 33.77, -287.93, 72.20, 10.81, 0.000, 0.000, 0.000, 15:43:42.908, 1587847422908
185, 126.81, -282.38, 106.18, 11.79, 0.000, 0.000, 0.000, 15:43:42.908, 1587847422908
186, 59.11, -292.30, 104.94, 23.37, 0.000, 0.000, 0.000, 15:43:42.908, 1587847422908
187, 130.01, -223.83, 135.43, 25.78, 0.000, 0.000, 0.000, 15:43:42.909, 1587847422909
188, 162.19, -235.51, 113.83, 7.87, 0.000, 0.000, 0.000, 15:43:42.909, 1587847422909
189, -29.42, -300.08, 104.40, 19.40, 0.000, 0.000, 0.000, 15:43:42.910, 1587847422910
190, 77.04, -270.73, 69.66, 24.07, 0.000, 0.000, 0.000, 15:43:42.910, 1587847422910
191, 191.70, -281.28, 9.99, 9.98, 0.000, 0.000, 0.000, 15:43:42.924, 1587847422924
192, 138.63, -261.67, 113.27, 4.94, 0.000, 0.000, 0.000, 15:43:42.924, 1587847422924
193, -8.61, -274.36, 208.09, 28.36, 0.000, 0.000, 0.000, 15:43:42.936, 1587847422936
194, 232.06, -289.60, -54.69, 11.30, 0.000, 0.000, 0.000, 15:43:42.936, 1587847422936
195, 222.51, -229.31, 107.33, 6.17, 0.000, 0.000, 0.000, 15:43:42.952, 1587847422952
196, 59.02, -269.70, 126.00, 24.39, 0.000, 0.000, 0.000, 15:43:42.952, 1587847422952
197, 222.97, -233.32, 89.58, 25.51, 0.000, 0.000, 0.000, 15:43:42.955, 1587847422955
198, 31.99, -299.70, 126.23, 7.77, 0.000, 0.000, 0.000, 15:43:42.955, 1587847422955
199, 87.12, -307.95, 184.51, 9.94, 0.000, 0.000, 0.000, 15:43:42.967, 1587847422967
200, 259.11, -210.13, 73.32, 21.35, 0.000, 0.000, 0.000, 15:43:42.967, 1587847422967
0, 178.92, -237.34, -42.68, 6.07, 0.000, 0.000, 0.000, 15:43:42.968, 1587847422968
1, 142.00, -251.74, 84.80, 11.35, 0.000, 0.000, 0.000, 15:43:42.982, 1587847422982
2, 73.42, -239.44, 225.31, 24.59, 0.000, 0.000, 0.000, 15:43:42.982, 1587847422982
3, -139.16, -261.01, 286.82, 19.72, 0.000, 0.000, 0.000, 15:43:42.997, 1587847422997
4, 172.78, -251.77, 163.30, 6.80, 0.000, 0.000, 0.000, 15:43:42.997, 1587847422997
5, 181.50, -213.98, -25.76, 24.55, 0.000, 0.000, 0.000, 15:43:42.998, 1587847422998
6, 148.80, -185.72, 134.97, 21.18, 0.000, 0.000, 0.000, 15:43:42.998, 1587847422998
7, 102.31, -235.68, -36.96, 5.53, 0.000, 0.000, 0.000, 15:43:43.011, 1587847423011
8, 96.83, -208.16, 165.32, 15.51, 0.000, 0.000, 0.000, 15:43:43.011, 1587847423011
9, 119.24, -197.40, 147.65, 33.84, 0.000, 0.000, 0.000, 15:43:43.027, 1587847423027
10, 96.98, -231.17, 208.77, 11.38, 0.000, 0.000, 0.000, 15:43:43.027, 1587847423027
11, 77.81, -239.03, 173.95, 12.79, 0.000, 0.000, 0.000, 15:43:43.028, 1587847423028
12, 119.36, -186.13, 179.24, 26.98, 0.000, 0.000, 0.000, 15:43:43.028, 1587847423028
13, 90.38, -208.98, 116.74, 17.68, 0.000, 0.000, 0.000, 15:43:43.041, 1587847423041
14, 44.54, -218.28, 77.80, 7.13, 0.000, 0.000, 0.000, 15:43:43.041, 1587847423041
15, 92.42, -200.08, 208.54, 20.59, 0.000, 0.000, 0.000, 15:43:43.056, 1587847423056
16, 117.20, -191.91, 175.08, 22.93, 0.000, 0.000, 0.000, 15:43:43.056, 1587847423056
17, 80.14, -209.63, 139.37, 8.46, 0.000, 0.000, 0.000, 15:43:43.058, 1587847423058
18, 65.57, -233.02, 117.17, 16.03, 0.000, 0.000, 0.000, 15:43:43.058, 1587847423058
19, 97.85, -200.71, 152.41, 22.62, 0.000, 0.000, 0.000, 15:43:43.070, 1587847423070
20, 63.73, -230.75, 146.59, 9.24, 0.000, 0.000, 0.000, 15:43:43.070, 1587847423070
21, 46.11, -229.92, 65.81, 9.63, 0.000, 0.000, 0.000, 15:43:43.087, 1587847423087
22, 136.35, -206.88, 189.17, 27.45, 0.000, 0.000, 0.000, 15:43:43.087, 1587847423087
23, 114.60, -222.83, 142.68, 20.29, 0.000, 0.000, 0.000, 15:43:43.089, 1587847423089
24, 74.07, -248.07, 95.79, 6.98, 0.000, 0.000, 0.000, 15:43:43.089, 1587847423089
25, 118.84, -208.20, 156.10, 23.80, 0.000, 0.000, 0.000, 15:43:43.101, 1587847423101
26, 118.81, -212.66, 224.70, 21.93, 0.000, 0.000, 0.000, 15:43:43.101, 1587847423101
27, 82.41, -244.51, 160.35, 6.86, 0.000, 0.000, 0.000, 15:43:43.149, 1587847423149
28, 87.73, -242.29, 142.09, 17.80, 0.000, 0.000, 0.000, 15:43:43.149, 1587847423149
29, 112.38, -213.94, 162.99, 25.10, 0.000, 0.000, 0.000, 15:43:43.149, 1587847423149
30, 98.37, -239.97, 146.16, 6.48, 0.000, 0.000, 0.000, 15:43:43.149, 1587847423149
31, 91.39, -250.98, 139.30, 7.30, 0.000, 0.000, 0.000, 15:43:43.150, 1587847423150
32, 109.19, -234.49, 160.60, 26.02, 0.000, 0.000, 0.000, 15:43:43.150, 1587847423150
33, 111.69, -239.45, 156.09, 12.85, 0.000, 0.000, 0.000, 15:43:43.152, 1587847423152
34, 95.34, -257.60, 132.04, 10.51, 0.000, 0.000, 0.000, 15:43:43.152, 1587847423152
35, 113.49, -243.82, 146.58, 23.68, 0.000, 0.000, 0.000, 15:43:43.162, 1587847423162
36, 131.63, -233.99, 155.64, 22.60, 0.000, 0.000, 0.000, 15:43:43.162, 1587847423162
37, 110.51, -259.43, 145.26, 8.84, 0.000, 0.000, 0.000, 15:43:43.178, 1587847423178
38, 104.13, -267.01, 127.69, 11.04, 0.000, 0.000, 0.000, 15:43:43.178, 1587847423178
39, 130.70, -238.27, 152.01, 22.53, 0.000, 0.000, 0.000, 15:43:43.179, 1587847423179
40, 130.53, -245.34, 159.90, 12.63, 0.000, 0.000, 0.000, 15:43:43.179, 1587847423179
41, 97.72, -274.17, 133.71, 11.82, 0.000, 0.000, 0.000, 15:43:43.179, 1587847423179
42, 134.17, -242.00, 159.49, 22.53, 0.000, 0.000, 0.000, 15:43:43.179, 1587847423179
43, 116.78, -258.27, 151.00, 14.87, 0.000, 0.000, 0.000, 15:43:43.191, 1587847423191
44, 93.61, -278.33, 123.80, 6.55, 0.000, 0.000, 0.000, 15:43:43.191, 1587847423191
45, 122.11, -258.64, 140.61, 21.72, 0.000, 0.000, 0.000, 15:43:43.207, 1587847423207
46, 144.76, -231.97, 151.59, 22.59, 0.000, 0.000, 0.000, 15:43:43.207, 1587847423207
47, 100.44, -275.35, 102.64, 5.85, 0.000, 0.000, 0.000, 15:43:43.207, 1587847423207
48, 119.59, -269.91, 109.26, 13.38, 0.000, 0.000, 0.000, 15:43:43.207, 1587847423207
49, 135.86, -240.52, 126.31, 24.38, 0.000, 0.000, 0.000, 15:43:43.221, 1587847423221
50, 116.13, -254.31, 125.52, 11.32, 0.000, 0.000, 0.000, 15:43:43.221, 1587847423221
51, 97.70, -270.59, 94.80, 10.64, 0.000, 0.000, 0.000, 15:43:43.237, 1587847423237
52, 129.82, -247.05, 115.47, 23.97, 0.000, 0.000, 0.000, 15:43:43.237, 1587847423237
53, 133.36, -248.33, 117.68, 13.19, 0.000, 0.000, 0.000, 15:43:43.238, 1587847423238
54, 120.35, -268.23, 90.29, 9.00, 0.000, 0.000, 0.000, 15:43:43.238, 1587847423238
55, 129.88, -249.29, 107.43, 24.41, 0.000, 0.000, 0.000, 15:43:43.251, 1587847423251
56, 134.02, -238.01, 113.92, 25.49, 0.000, 0.000, 0.000, 15:43:43.251, 1587847423251
57, 118.87, -253.52, 99.48, 8.07, 0.000, 0.000, 0.000, 15:43:43.267, 1587847423267
58, 114.57, -260.44, 94.73, 15.08, 0.000, 0.000, 0.000, 15:43:43.267, 1587847423267
59, 125.48, -233.90, 122.54, 27.57, 0.000, 0.000, 0.000, 15:43:43.267, 1587847423267
60, 131.25, -253.14, 104.71, 14.52, 0.000, 0.000, 0.000, 15:43:43.267, 1587847423267
61, 121.02, -277.85, 73.37, 13.53, 0.000, 0.000, 0.000, 15:43:43.281, 1587847423281
62, 151.86, -233.64, 117.06, 29.46, 0.000, 0.000, 0.000, 15:43:43.281, 1587847423281
63, 143.24, -242.44, 99.81, 19.81, 0.000, 0.000, 0.000, 15:43:43.297, 1587847423297
64, 131.04, -259.74, 83.06, 8.29, 0.000, 0.000, 0.000, 15:43:43.297, 1587847423297
65, 127.52, -258.98, 86.63, 19.90, 0.000, 0.000, 0.000, 15:43:43.297, 1587847423297
66, 143.96, -240.59, 100.71, 18.57, 0.000, 0.000, 0.000, 15:43:43.297, 1587847423297
67, 95.48, -286.03, 80.64, 6.56, 0.000, 0.000, 0.000, 15:43:43.311, 1587847423311
68, 113.71, -258.79, 75.15, 17.66, 0.000, 0.000, 0.000, 15:43:43.311, 1587847423311
69, 167.87, -215.88, 112.41, 25.50, 0.000, 0.000, 0.000, 15:43:43.327, 1587847423327
70, 156.34, -236.28, 98.94, 9.89, 0.000, 0.000, 0.000, 15:43:43.327, 1587847423327
71, 128.19, -261.72, 81.40, 9.39, 0.000, 0.000, 0.000, 15:43:43.327, 1587847423327
72, 125.80, -243.85, 100.30, 26.90, 0.000, 0.000, 0.000, 15:43:43.327, 1587847423327
73, 121.52, -242.25, 108.49, 20.90, 0.000, 0.000, 0.000, 15:43:43.341, 1587847423341
74, 139.29, -259.18, 80.77, 11.16, 0.000, 0.000, 0.000, 15:43:43.341, 1587847423341
75, 123.09, -267.00, 66.87, 25.15, 0.000, 0.000, 0.000, 15:43:43.373, 1587847423373
76, 146.14, -241.63, 102.97, 23.87, 0.000, 0.000, 0.000, 15:43:43.373, 1587847423373
77, 134.09, -256.73, 91.81, 8.17, 0.000, 0.000, 0.000, 15:43:43.374, 1587847423374
78, 101.89, -279.92, 75.19, 13.68, 0.000, 0.000, 0.000, 15:43:43.374, 1587847423374
79, 136.16, -238.08, 112.16, 24.93, 0.000, 0.000, 0.000, 15:43:43.375, 1587847423375
80, 164.04, -242.23, 105.04, 10.75, 0.000, 0.000, 0.000, 15:43:43.375, 1587847423375
81, 130.54, -265.95, 72.60, 8.16, 0.000, 0.000, 0.000, 15:43:43.376, 1587847423376
82, 140.41, -252.39, 84.82, 24.90, 0.000, 0.000, 0.000, 15:43:43.376, 1587847423376
83, 137.01, -241.11, 108.91, 16.89, 0.000, 0.000, 0.000, 15:43:43.386, 1587847423386
84, 110.67, -279.51, 64.24, 7.74, 0.000, 0.000, 0.000, 15:43:43.386, 1587847423386
85, 136.68, -257.43, 80.92, 20.63, 0.000, 0.000, 0.000, 15:43:43.400, 1587847423400
86, 155.88, -242.70, 87.95, 19.30, 0.000, 0.000, 0.000, 15:43:43.400, 1587847423400
87, 126.67, -266.63, 66.98, 5.76, 0.000, 0.000, 0.000, 15:43:43.417, 1587847423417
88, 133.97, -265.51, 83.38, 18.58, 0.000, 0.000, 0.000, 15:43:43.417, 1587847423417
89, 144.13, -257.02, 121.63, 25.26, 0.000, 0.000, 0.000, 15:43:43.418, 1587847423418
90, 140.01, -245.61, 100.73, 12.35, 0.000, 0.000, 0.000, 15:43:43.418, 1587847423418
91, 126.07, -266.52, 70.11, 14.47, 0.000, 0.000, 0.000, 15:43:43.431, 1587847423431
92, 154.15, -254.20, 84.04, 24.58, 0.000, 0.000, 0.000, 15:43:43.431, 1587847423431
93, 152.08, -246.03, 92.09, 16.53, 0.000, 0.000, 0.000, 15:43:43.447, 1587847423447
94, 117.56, -268.23, 68.99, 2.28, 0.000, 0.000, 0.000, 15:43:43.447, 1587847423447
95, 110.73, -264.17, 80.74, 19.38, 0.000, 0.000, 0.000, 15:43:43.462, 1587847423462
96, 111.24, -255.20, 96.92, 22.28, 0.000, 0.000, 0.000, 15:43:43.462, 1587847423462
97, 113.82, -281.43, 40.86, 6.95, 0.000, 0.000, 0.000, 15:43:43.462, 1587847423462
98, 169.51, -258.93, 68.33, 12.84, 0.000, 0.000, 0.000, 15:43:43.462, 1587847423462
99, 183.85, -214.51, 140.26, 25.41, 0.000, 0.000, 0.000, 15:43:43.476, 1587847423476
100, 140.46, -250.54, 101.82, 7.36, 0.000, 0.000, 0.000, 15:43:43.476, 1587847423476
101, 113.47, -271.91, 80.05, 12.44, 0.000, 0.000, 0.000, 15:43:43.477, 1587847423477
102, 135.82, -251.97, 102.13, 25.23, 0.000, 0.000, 0.000, 15:43:43.477, 1587847423477
103, 140.41, -260.31, 85.20, 16.67, 0.000, 0.000, 0.000, 15:43:43.491, 1587847423491
104, 127.54, -267.03, 69.16, 6.21, 0.000, 0.000, 0.000, 15:43:43.491, 1587847423491
105, 138.90, -247.23, 93.94, 15.26, 0.000, 0.000, 0.000, 15:43:43.507, 1587847423507
106, 151.53, -241.84, 107.70, 22.13, 0.000, 0.000, 0.000, 15:43:43.507, 1587847423507
107, 119.16, -266.94, 82.54, 3.61, 0.000, 0.000, 0.000, 15:43:43.508, 1587847423508
108, 100.61, -296.62, 51.43, 14.72, 0.000, 0.000, 0.000, 15:43:43.508, 1587847423508
109, 126.93, -234.19, 95.94, 20.93, 0.000, 0.000, 0.000, 15:43:43.521, 1587847423521
110, 163.01, -245.51, 104.58, 13.81, 0.000, 0.000, 0.000, 15:43:43.521, 1587847423521
111, 129.63, -264.05, 67.91, 13.40, 0.000, 0.000, 0.000, 15:43:43.537, 1587847423537
112, 152.80, -240.77, 100.41, 26.39, 0.000, 0.000, 0.000, 15:43:43.537, 1587847423537
113, 103.93, -262.64, 102.02, 16.29, 0.000, 0.000, 0.000, 15:43:43.538, 1587847423538
114, 88.09, -289.66, 53.97, 7.51, 0.000, 0.000, 0.000, 15:43:43.538, 1587847423538
115, 168.37, -259.39, 47.59, 21.32, 0.000, 0.000, 0.000, 15:43:43.551, 1587847423551
116, 168.11, -213.21, 145.92, 21.39, 0.000, 0.000, 0.000, 15:43:43.551, 1587847423551
117, 89.90, -301.90, -2.32, 6.69, 0.000, 0.000, 0.000, 15:43:43.567, 1587847423567
118, 63.32, -268.15, 65.83, 14.16, 0.000, 0.000, 0.000, 15:43:43.567, 1587847423567
119, 179.19, -191.26, 177.84, 24.96, 0.000, 0.000, 0.000, 15:43:43.568, 1587847423568
120, 115.96, -248.94, 60.29, 10.31, 0.000, 0.000, 0.000, 15:43:43.568, 1587847423568
121, 8.39, -269.23, 87.05, 14.50, 0.000, 0.000, 0.000, 15:43:43.581, 1587847423581
122, 146.06, -249.24, 49.19, 22.91, 0.000, 0.000, 0.000, 15:43:43.581, 1587847423581
123, 256.43, -212.04, 145.98, 14.28, 0.000, 0.000, 0.000, 15:43:43.597, 1587847423597
124, 90.56, -246.17, 140.84, 5.51, 0.000, 0.000, 0.000, 15:43:43.597, 1587847423597
125, 75.04, -285.76, 10.12, 18.94, 0.000, 0.000, 0.000, 15:43:43.598, 1587847423598
126, 245.83, -214.05, 62.03, 22.92, 0.000, 0.000, 0.000, 15:43:43.598, 1587847423598
127, 147.28, -244.37, 175.91, 8.97, 0.000, 0.000, 0.000, 15:43:43.610, 1587847423610
128, -43.44, -299.20, 47.72, 17.65, 0.000, 0.000, 0.000, 15:43:43.610, 1587847423610
129, -135.00, -283.96, 15.07, 24.68, 0.000, 0.000, 0.000, 15:43:43.627, 1587847423627
130, 148.96, -270.85, 45.56, 10.85, 0.000, 0.000, 0.000, 15:43:43.627, 1587847423627
131, 204.42, -238.98, 71.11, 12.06, 0.000, 0.000, 0.000, 15:43:43.628, 1587847423628
132, 257.03, -225.09, 259.15, 27.26, 0.000, 0.000, 0.000, 15:43:43.628, 1587847423628
133, 192.05, -219.47, 260.36, 14.76, 0.000, 0.000, 0.000, 15:43:43.641, 1587847423641
134, 130.11, -282.64, 135.10, 11.26, 0.000, 0.000, 0.000, 15:43:43.641, 1587847423641
135, -99.74, -299.43, 22.68, 26.10, 0.000, 0.000, 0.000, 15:43:43.657, 1587847423657
136, 188.04, -270.98, -35.34, 22.10, 0.000, 0.000, 0.000, 15:43:43.657, 1587847423657
137, 163.35, -203.80, 217.34, 4.42, 0.000, 0.000, 0.000, 15:43:43.658, 1587847423658
138, 81.86, -225.62, 255.06, 18.03, 0.000, 0.000, 0.000, 15:43:43.658, 1587847423658
139, -24.03, -241.65, 204.58, 22.62, 0.000, 0.000, 0.000, 15:43:43.672, 1587847423672
140, 222.45, -203.24, 143.10, 15.16, 0.000, 0.000, 0.000, 15:43:43.672, 1587847423672
141, 117.49, -230.09, 49.77, 12.31, 0.000, 0.000, 0.000, 15:43:43.687, 1587847423687
142, 147.88, -209.50, 93.62, 26.73, 0.000, 0.000, 0.000, 15:43:43.687, 1587847423687
143, 119.68, -222.67, 105.39, 17.76, 0.000, 0.000, 0.000, 15:43:43.689, 1587847423689
144, 61.08, -241.78, 17.41, 7.24, 0.000, 0.000, 0.000, 15:43:43.689, 1587847423689
145, 132.02, -194.57, 205.95, 23.08, 0.000, 0.000, 0.000, 15:43:43.701, 1587847423701
146, 76.49, -199.46, 198.34, 24.88, 0.000, 0.000, 0.000, 15:43:43.701, 1587847423701
147, 50.25, -209.63, 185.28, 4.16, 0.000, 0.000, 0.000, 15:43:43.716, 1587847423716
148, 47.57, -231.46, 127.35, 14.34, 0.000, 0.000, 0.000, 15:43:43.716, 1587847423716
149, 113.09, -230.30, -13.11, 30.12, 0.000, 0.000, 0.000, 15:43:43.719, 1587847423719
150, -5.65, -210.55, 104.60, 7.38, 0.000, 0.000, 0.000, 15:43:43.719, 1587847423719
151, 163.87, -171.83, 194.75, 11.61, 0.000, 0.000, 0.000, 15:43:43.731, 1587847423731
152, 122.20, -185.53, 203.10, 27.67, 0.000, 0.000, 0.000, 15:43:43.731, 1587847423731
153, 99.85, -206.15, 157.95, 15.47, 0.000, 0.000, 0.000, 15:43:43.749, 1587847423749
154, 60.85, -238.72, 112.54, 0.96, 0.000, 0.000, 0.000, 15:43:43.749, 1587847423749
155, 84.22, -214.26, 149.29, 22.00, 0.000, 0.000, 0.000, 15:43:43.750, 1587847423750
156, 88.22, -211.40, 139.80, 23.71, 0.000, 0.000, 0.000, 15:43:43.750, 1587847423750
157, 71.89, -240.40, 120.04, 10.19, 0.000, 0.000, 0.000, 15:43:43.761, 1587847423761
158, 74.58, -228.01, 138.02, 11.23, 0.000, 0.000, 0.000, 15:43:43.761, 1587847423761
159, 113.69, -196.98, 164.73, 25.12, 0.000, 0.000, 0.000, 15:43:43.777, 1587847423777
160, 94.29, -220.55, 143.70, 13.10, 0.000, 0.000, 0.000, 15:43:43.777, 1587847423777
161, 73.86, -244.29, 119.36, 7.42, 0.000, 0.000, 0.000, 15:43:43.778, 1587847423778
162, 104.13, -222.28, 147.55, 26.20, 0.000, 0.000, 0.000, 15:43:43.778, 1587847423778
163, 108.96, -221.17, 148.55, 18.12, 0.000, 0.000, 0.000, 15:43:43.791, 1587847423791
164, 83.45, -248.33, 120.79, 7.56, 0.000, 0.000, 0.000, 15:43:43.791, 1587847423791
165, 99.53, -241.20, 130.29, 25.85, 0.000, 0.000, 0.000, 15:43:43.807, 1587847423807
166, 119.77, -231.77, 146.33, 21.73, 0.000, 0.000, 0.000, 15:43:43.807, 1587847423807
167, 105.00, -247.91, 129.87, 8.37, 0.000, 0.000, 0.000, 15:43:43.808, 1587847423808
168, 102.41, -253.51, 124.55, 16.15, 0.000, 0.000, 0.000, 15:43:43.808, 1587847423808
169, 135.59, -233.54, 149.76, 24.40, 0.000, 0.000, 0.000, 15:43:43.821, 1587847423821
170, 129.27, -247.52, 132.25, 6.12, 0.000, 0.000, 0.000, 15:43:43.821, 1587847423821
171, 108.93, -272.99, 107.46, 7.95, 0.000, 0.000, 0.000, 15:43:43.837, 1587847423837
172, 129.42, -253.84, 124.26, 24.26, 0.000, 0.000, 0.000, 15:43:43.837, 1587847423837
173, 133.86, -243.90, 133.09, 17.77, 0.000, 0.000, 0.000, 15:43:43.840, 1587847423840
174, 114.87, -263.81, 109.49, 9.68, 0.000, 0.000, 0.000, 15:43:43.840, 1587847423840
175, 127.61, -253.85, 110.05, 26.92, 0.000, 0.000, 0.000, 15:43:43.851, 1587847423851
176, 141.26, -234.97, 127.14, 23.65, 0.000, 0.000, 0.000, 15:43:43.851, 1587847423851
177, 126.86, -258.99, 104.80, 11.86, 0.000, 0.000, 0.000, 15:43:43.869, 1587847423869
178, 120.59, -266.33, 93.86, 19.46, 0.000, 0.000, 0.000, 15:43:43.869, 1587847423869
179, 158.59, -236.28, 115.67, 21.50, 0.000, 0.000, 0.000, 15:43:43.872, 1587847423872
180, 163.61, -241.32, 113.42, 7.26, 0.000, 0.000, 0.000, 15:43:43.872, 1587847423872
181, 121.65, -261.63, 74.12, 10.00, 0.000, 0.000, 0.000, 15:43:43.884, 1587847423884
182, 149.37, -235.46, 120.02, 28.10, 0.000, 0.000, 0.000, 15:43:43.884, 1587847423884
183, 137.50, -242.82, 111.37, 16.15, 0.000, 0.000, 0.000, 15:43:43.897, 1587847423897
184, 103.95, -272.89, 76.02, 9.53, 0.000, 0.000, 0.000, 15:43:43.897, 1587847423897
185, 141.87, -253.50, 98.62, 24.77, 0.000, 0.000, 0.000, 15:43:43.898, 1587847423898
186, 160.69, -226.20, 124.80, 20.06, 0.000, 0.000, 0.000, 15:43:43.898, 1587847423898
187, 108.53, -273.60, 83.24, 9.48, 0.000, 0.000, 0.000, 15:43:43.927, 1587847423927
188, 111.09, -270.63, 73.27, 10.71, 0.000, 0.000, 0.000, 15:43:43.927, 1587847423927
189, 153.44, -239.12, 107.25, 24.33, 0.000, 0.000, 0.000, 15:43:43.928, 1587847423928
190, 154.00, -238.03, 97.15, 11.13, 0.000, 0.000, 0.000, 15:43:43.928, 1587847423928
191, 126.95, -272.41, 70.56, 11.98, 0.000, 0.000, 0.000, 15:43:43.929, 1587847423929
192, 148.44, -241.34, 99.17, 23.89, 0.000, 0.000, 0.000, 15:43:43.929, 1587847423929
193, 151.38, -240.74, 107.60, 17.28, 0.000, 0.000, 0.000, 15:43:43.941, 1587847423941
194, 107.14, -270.55, 68.54, 6.19, 0.000, 0.000, 0.000, 15:43:43.941, 1587847423941
195, 120.89, -258.98, 86.75, 22.20, 0.000, 0.000, 0.000, 15:43:43.958, 1587847423958
196, 171.56, -243.32, 98.92, 22.23, 0.000, 0.000, 0.000, 15:43:43.958, 1587847423958
197, 154.37, -265.17, 74.77, 6.02, 0.000, 0.000, 0.000, 15:43:43.960, 1587847423960
198, 139.03, -247.63, 70.76, 16.04, 0.000, 0.000, 0.000, 15:43:43.960, 1587847423960
199, 157.25, -230.02, 92.74, 25.20, 0.000, 0.000, 0.000, 15:43:43.974, 1587847423974
200, 127.99, -250.37, 87.29, 8.40, 0.000, 0.000, 0.000, 15:43:43.974, 1587847423974
0, 118.50, -274.74, 78.25, 13.10, 0.000, 0.000, 0.000, 15:43:43.976, 1587847423976
1, 145.44, -250.36, 101.64, 27.18, 0.000, 0.000, 0.000, 15:43:43.986, 1587847423986
2, 153.33, -236.76, 105.58, 15.68, 0.000, 0.000, 0.000, 15:43:43.986, 1587847423986
3, 119.17, -276.00, 55.68, 1.98, 0.000, 0.000, 0.000, 15:43:44.019, 1587847424019
4, 141.57, -249.19, 89.92, 16.52, 0.000, 0.000, 0.000, 15:43:44.019, 1587847424019
5, 141.20, -248.91, 94.37, 23.92, 0.000, 0.000, 0.000, 15:43:44.021, 1587847424021
6, 134.53, -260.19, 66.74, 4.73, 0.000, 0.000, 0.000, 15:43:44.021, 1587847424021
7, 136.29, -265.88, 74.50, 10.38, 0.000, 0.000, 0.000, 15:43:44.021, 1587847424021
8, 161.54, -244.37, 99.03, 23.08, 0.000, 0.000, 0.000, 15:43:44.021, 1587847424021
9, 145.25, -252.83, 91.50, 7.51, 0.000, 0.000, 0.000, 15:43:44.023, 1587847424023
10, 122.55, -284.60, 45.74, 8.76, 0.000, 0.000, 0.000, 15:43:44.023, 1587847424023
11, 148.27, -256.34, 82.79, 28.28, 0.000, 0.000, 0.000, 15:43:44.031, 1587847424031
12, 145.65, -240.72, 120.73, 15.34, 0.000, 0.000, 0.000, 15:43:44.031, 1587847424031
13, 121.67, -272.36, 84.96, 8.88, 0.000, 0.000, 0.000, 15:43:44.049, 1587847424049
14, 119.59, -267.87, 79.58, 21.02, 0.000, 0.000, 0.000, 15:43:44.049, 1587847424049
15, 153.19, -243.64, 110.29, 21.54, 0.000, 0.000, 0.000, 15:43:44.062, 1587847424062
16, 123.73, -272.83, 78.52, 0.28, 0.000, 0.000, 0.000, 15:43:44.062, 1587847424062
17, 113.94, -276.55, 73.72, 14.30, 0.000, 0.000, 0.000, 15:43:44.064, 1587847424064
18, 137.21, -251.73, 101.75, 23.13, 0.000, 0.000, 0.000, 15:43:44.064, 1587847424064
19, 139.46, -251.40, 104.79, 11.81, 0.000, 0.000, 0.000, 15:43:44.076, 1587847424076
20, 114.02, -289.12, 59.09, 5.88, 0.000, 0.000, 0.000, 15:43:44.076, 1587847424076
21, 150.55, -251.74, 79.37, 23.43, 0.000, 0.000, 0.000, 15:43:44.091, 1587847424091
22, 152.64, -249.52, 91.93, 16.34, 0.000, 0.000, 0.000, 15:43:44.091, 1587847424091
23, 128.65, -272.99, 80.51, 4.36, 0.000, 0.000, 0.000, 15:43:44.092, 1587847424092
24, 134.10, -268.91, 84.75, 16.26, 0.000, 0.000, 0.000, 15:43:44.092, 1587847424092
25, 157.92, -248.65, 98.17, 19.51, 0.000, 0.000, 0.000, 15:43:44.107, 1587847424107
26, 122.68, -273.19, 76.47, 3.94, 0.000, 0.000, 0.000, 15:43:44.107, 1587847424107
27, 115.81, -280.42, 76.72, 13.10, 0.000, 0.000, 0.000, 15:43:44.123, 1587847424123
28, 162.46, -245.13, 103.34, 24.74, 0.000, 0.000, 0.000, 15:43:44.123, 1587847424123
29, 143.90, -254.48, 88.20, 14.37, 0.000, 0.000, 0.000, 15:43:44.125, 1587847424125
30, 120.28, -270.72, 69.82, 9.88, 0.000, 0.000, 0.000, 15:43:44.125, 1587847424125
31, 146.19, -251.82, 93.92, 29.46, 0.000, 0.000, 0.000, 15:43:44.136, 1587847424136
32, 139.54, -255.39, 89.71, 15.03, 0.000, 0.000, 0.000, 15:43:44.136, 1587847424136
33, 115.94, -285.49, 56.72, 0.12, 0.000, 0.000, 0.000, 15:43:44.152, 1587847424152
34, 125.51, -264.90, 81.29, 19.73, 0.000, 0.000, 0.000, 15:43:44.152, 1587847424152
35, 156.54, -245.30, 106.44, 21.73, 0.000, 0.000, 0.000, 15:43:44.154, 1587847424154
36, 129.96, -268.16, 90.89, 9.44, 0.000, 0.000, 0.000, 15:43:44.154, 1587847424154
37, 115.17, -276.09, 73.07, 15.10, 0.000, 0.000, 0.000, 15:43:44.166, 1587847424166
38, 148.40, -245.81, 101.52, 22.66, 0.000, 0.000, 0.000, 15:43:44.166, 1587847424166
39, 132.19, -261.87, 86.94, 10.77, 0.000, 0.000, 0.000, 15:43:44.183, 1587847424183
40, 115.52, -285.05, 58.24, 8.28, 0.000, 0.000, 0.000, 15:43:44.183, 1587847424183
41, 141.81, -261.14, 88.89, 21.66, 0.000, 0.000, 0.000, 15:43:44.184, 1587847424184
42, 135.92, -246.70, 112.69, 15.01, 0.000, 0.000, 0.000, 15:43:44.184, 1587847424184
43, 108.80, -265.62, 88.94, 8.16, 0.000, 0.000, 0.000, 15:43:44.197, 1587847424197
44, 120.61, -264.22, 82.93, 20.84, 0.000, 0.000, 0.000, 15:43:44.197, 1587847424197
45, 160.75, -253.54, 99.27, 18.74, 0.000, 0.000, 0.000, 15:43:44.213, 1587847424213
46, 132.09, -272.63, 63.29, 1.55, 0.000, 0.000, 0.000, 15:43:44.213, 1587847424213
47, 114.76, -270.19, 93.64, 10.40, 0.000, 0.000, 0.000, 15:43:44.214, 1587847424214
48, 110.62, -264.80, 69.49, 27.26, 0.000, 0.000, 0.000, 15:43:44.214, 1587847424214
49, 116.78, -261.12, 87.15, 8.41, 0.000, 0.000, 0.000, 15:43:44.243, 1587847424243
50, 140.61, -250.49, 109.15, 11.60, 0.000, 0.000, 0.000, 15:43:44.243, 1587847424243
51, 169.38, -234.92, 100.27, 23.69, 0.000, 0.000, 0.000, 15:43:44.244, 1587847424244
52, 143.84, -240.07, 102.94, 18.12, 0.000, 0.000, 0.000, 15:43:44.244, 1587847424244
53, 52.02, -328.96, 50.07, 7.91, 0.000, 0.000, 0.000, 15:43:44.245, 1587847424245
54, 132.16, -240.75, 104.04, 19.91, 0.000, 0.000, 0.000, 15:43:44.245, 1587847424245
55, 156.84, -230.74, 109.11, 21.32, 0.000, 0.000, 0.000, 15:43:44.256, 1587847424256
56, 146.33, -246.78, 89.70, 6.09, 0.000, 0.000, 0.000, 15:43:44.256, 1587847424256
57, 123.99, -261.44, 91.78, 12.85, 0.000, 0.000, 0.000, 15:43:44.273, 1587847424273
58, 111.63, -271.18, 66.89, 22.43, 0.000, 0.000, 0.000, 15:43:44.273, 1587847424273
59, 145.04, -259.84, 83.19, 13.44, 0.000, 0.000, 0.000, 15:43:44.273, 1587847424273
60, 34.55, -285.66, 113.82, 11.04, 0.000, 0.000, 0.000, 15:43:44.273, 1587847424273
61, 128.82, -258.51, 115.69, 27.97, 0.000, 0.000, 0.000, 15:43:44.286, 1587847424286
62, 196.84, -208.22, 132.33, 15.16, 0.000, 0.000, 0.000, 15:43:44.286, 1587847424286
63, 110.27, -260.02, 90.78, 9.64, 0.000, 0.000, 0.000, 15:43:44.302, 1587847424302
64, 60.38, -305.50, 77.32, 21.74, 0.000, 0.000, 0.000, 15:43:44.302, 1587847424302
65, 139.84, -237.61, 100.83, 25.12, 0.000, 0.000, 0.000, 15:43:44.303, 1587847424303
66, 99.32, -253.93, 84.07, 11.46, 0.000, 0.000, 0.000, 15:43:44.303, 1587847424303
67, 165.86, -246.17, 94.52, 13.06, 0.000, 0.000, 0.000, 15:43:44.316, 1587847424316
68, 111.06, -249.54, 116.08, 27.58, 0.000, 0.000, 0.000, 15:43:44.316, 1587847424316
69, 123.12, -263.77, 120.88, 9.94, 0.000, 0.000, 0.000, 15:43:44.332, 1587847424332
70, 196.00, -253.68, 99.79, 13.71, 0.000, 0.000, 0.000, 15:43:44.332, 1587847424332
71, 163.03, -247.94, 92.96, 28.85, 0.000, 0.000, 0.000, 15:43:44.334, 1587847424334
72, 156.61, -255.50, 89.48, 18.54, 0.000, 0.000, 0.000, 15:43:44.334, 1587847424334
73, 112.22, -289.75, 82.18, 10.97, 0.000, 0.000, 0.000, 15:43:44.346, 1587847424346
74, 102.84, -275.65, 78.06, 22.19, 0.000, 0.000, 0.000, 15:43:44.346, 1587847424346
75, 86.09, -268.25, 131.00, 22.71, 0.000, 0.000, 0.000, 15:43:44.362, 1587847424362
76, 112.13, -252.10, 116.20, 7.44, 0.000, 0.000, 0.000, 15:43:44.362, 1587847424362
77, 163.19, -233.55, 71.24, 19.49, 0.000, 0.000, 0.000, 15:43:44.368, 1587847424368
78, 161.56, -254.00, 54.05, 25.18, 0.000, 0.000, 0.000, 15:43:44.368, 1587847424368
79, 120.75, -274.73, 108.65, 13.23, 0.000, 0.000, 0.000, 15:43:44.377, 1587847424377
80, 96.32, -247.99, 125.25, 11.31, 0.000, 0.000, 0.000, 15:43:44.377, 1587847424377
81, 65.95, -233.34, 122.57, 22.14, 0.000, 0.000, 0.000, 15:43:44.392, 1587847424392
82, 163.68, -225.94, 128.29, 19.28, 0.000, 0.000, 0.000, 15:43:44.392, 1587847424392
83, 93.43, -268.12, 92.57, 3.28, 0.000, 0.000, 0.000, 15:43:44.394, 1587847424394
84, 27.33, -277.64, 75.86, 19.07, 0.000, 0.000, 0.000, 15:43:44.394, 1587847424394
85, 132.66, -242.23, 118.07, 20.40, 0.000, 0.000, 0.000, 15:43:44.406, 1587847424406
86, 219.98, -207.83, 117.53, 9.92, 0.000, 0.000, 0.000, 15:43:44.406, 1587847424406
87, 134.34, -265.34, 78.57, 16.76, 0.000, 0.000, 0.000, 15:43:44.422, 1587847424422
88, 130.74, -261.59, 94.46, 30.07, 0.000, 0.000, 0.000, 15:43:44.422, 1587847424422
89, -36.16, -293.65, 72.94, 6.56, 0.000, 0.000, 0.000, 15:43:44.423, 1587847424423
90, 123.89, -261.39, 76.16, 7.21, 0.000, 0.000, 0.000, 15:43:44.423, 1587847424423
91, 220.70, -203.61, 129.13, 19.11, 0.000, 0.000, 0.000, 15:43:44.436, 1587847424436
92, 181.01, -226.48, 81.25, 19.61, 0.000, 0.000, 0.000, 15:43:44.436, 1587847424436
93, 117.29, -241.91, 134.52, 5.01, 0.000, 0.000, 0.000, 15:43:44.452, 1587847424452
94, 100.78, -263.59, 95.07, 14.96, 0.000, 0.000, 0.000, 15:43:44.452, 1587847424452
95, 107.09, -228.38, 118.91, 16.23, 0.000, 0.000, 0.000, 15:43:44.454, 1587847424454
96, 138.52, -258.73, 100.76, 6.66, 0.000, 0.000, 0.000, 15:43:44.454, 1587847424454
97, 107.45, -260.24, 60.63, 15.99, 0.000, 0.000, 0.000, 15:43:44.483, 1587847424483
98, 118.66, -234.38, 88.80, 23.69, 0.000, 0.000, 0.000, 15:43:44.483, 1587847424483
99, 129.62, -228.10, 139.17, 11.85, 0.000, 0.000, 0.000, 15:43:44.485, 1587847424485
100, 82.65, -271.94, 93.48, 10.27, 0.000, 0.000, 0.000, 15:43:44.485, 1587847424485
101, 127.64, -235.26, 118.81, 25.36, 0.000, 0.000, 0.000, 15:43:44.485, 1587847424485
102, 131.98, -238.26, 110.93, 20.89, 0.000, 0.000, 0.000, 15:43:44.485, 1587847424485
103, 94.85, -271.48, 67.64, 5.73, 0.000, 0.000, 0.000, 15:43:44.497, 1587847424497
104, 113.21, -241.92, 107.31, 25.19, 0.000, 0.000, 0.000, 15:43:44.497, 1587847424497
105, 136.00, -227.89, 122.95, 22.55, 0.000, 0.000, 0.000, 15:43:44.516, 1587847424516
106, 110.45, -242.21, 107.85, 8.12, 0.000, 0.000, 0.000, 15:43:44.517, 1587847424517
107, 103.71, -253.01, 90.02, 14.42, 0.000, 0.000, 0.000, 15:43:44.518, 1587847424518
108, 145.84, -226.66, 118.41, 24.06, 0.000, 0.000, 0.000, 15:43:44.518, 1587847424518
109, 129.91, -228.31, 114.08, 15.11, 0.000, 0.000, 0.000, 15:43:44.526, 1587847424526
110, 100.67, -262.29, 79.70, 11.48, 0.000, 0.000, 0.000, 15:43:44.526, 1587847424526
111, 142.64, -240.40, 102.62, 27.60, 0.000, 0.000, 0.000, 15:43:44.542, 1587847424542
112, 129.28, -224.69, 114.39, 20.69, 0.000, 0.000, 0.000, 15:43:44.542, 1587847424542
113, 105.95, -256.96, 88.70, 5.40, 0.000, 0.000, 0.000, 15:43:44.542, 1587847424542
114, 122.90, -253.52, 97.26, 18.96, 0.000, 0.000, 0.000, 15:43:44.542, 1587847424542
115, 152.71, -224.70, 128.98, 22.27, 0.000, 0.000, 0.000, 15:43:44.556, 1587847424556
116, 120.92, -252.26, 91.37, 3.66, 0.000, 0.000, 0.000, 15:43:44.556, 1587847424556
117, 106.96, -262.49, 87.81, 17.90, 0.000, 0.000, 0.000, 15:43:44.572, 1587847424572
118, 139.00, -235.35, 115.19, 25.58, 0.000, 0.000, 0.000, 15:43:44.572, 1587847424572
119, 137.69, -238.11, 108.96, 13.61, 0.000, 0.000, 0.000, 15:43:44.573, 1587847424573
120, 132.74, -252.97, 88.94, 14.62, 0.000, 0.000, 0.000, 15:43:44.573, 1587847424573
121, 148.85, -232.94, 112.92, 27.98, 0.000, 0.000, 0.000, 15:43:44.586, 1587847424586
122, 169.08, -222.90, 130.89, 21.86, 0.000, 0.000, 0.000, 15:43:44.586, 1587847424586
123, 136.77, -243.62, 94.09, 4.53, 0.000, 0.000, 0.000, 15:43:44.602, 1587847424602
124, 161.08, -229.06, 108.68, 19.84, 0.000, 0.000, 0.000, 15:43:44.602, 1587847424602
125, 187.32, -207.81, 121.17, 24.19, 0.000, 0.000, 0.000, 15:43:44.604, 1587847424604
126, 166.98, -227.09, 115.28, 12.10, 0.000, 0.000, 0.000, 15:43:44.604, 1587847424604
127, 157.27, -222.92, 104.39, 15.49, 0.000, 0.000, 0.000, 15:43:44.617, 1587847424617
128, 186.60, -198.44, 125.12, 23.81, 0.000, 0.000, 0.000, 15:43:44.617, 1587847424617
129, 189.92, -190.63, 120.27, 9.08, 0.000, 0.000, 0.000, 15:43:44.632, 1587847424632
130, 154.12, -218.81, 76.01, 7.61, 0.000, 0.000, 0.000, 15:43:44.632, 1587847424632
131, 173.71, -203.11, 107.19, 26.03, 0.000, 0.000, 0.000, 15:43:44.633, 1587847424633
132, 178.06, -205.23, 108.54, 22.46, 0.000, 0.000, 0.000, 15:43:44.633, 1587847424633
133, 158.71, -226.13, 88.12, 8.84, 0.000, 0.000, 0.000, 15:43:44.646, 1587847424646
134, 154.71, -212.95, 91.45, 22.76, 0.000, 0.000, 0.000, 15:43:44.646, 1587847424646
135, 160.91, -203.38, 92.22, 22.59, 0.000, 0.000, 0.000, 15:43:44.662, 1587847424662
136, 137.04, -222.24, 86.68, 9.28, 0.000, 0.000, 0.000, 15:43:44.662, 1587847424662
137, 118.56, -235.93, 88.29, 12.22, 0.000, 0.000, 0.000, 15:43:44.663, 1587847424663
138, 155.67, -217.62, 111.81, 24.93, 0.000, 0.000, 0.000, 15:43:44.663, 1587847424663
139, 131.94, -245.31, 86.70, 12.38, 0.000, 0.000, 0.000, 15:43:44.677, 1587847424677
140, 96.47, -275.53, 65.22, 7.95, 0.000, 0.000, 0.000, 15:43:44.677, 1587847424677
141, 133.54, -224.13, 110.87, 27.73, 0.000, 0.000, 0.000, 15:43:44.692, 1587847424692
142, 174.20, -207.22, 94.56, 19.50, 0.000, 0.000, 0.000, 15:43:44.692, 1587847424692
143, 136.23, -239.99, 82.80, 7.16, 0.000, 0.000, 0.000, 15:43:44.693, 1587847424693
144, 124.89, -254.31, 81.21, 17.32, 0.000, 0.000, 0.000, 15:43:44.693, 1587847424693
145, 139.63, -234.38, 103.54, 20.42, 0.000, 0.000, 0.000, 15:43:44.707, 1587847424707
146, 104.47, -253.02, 79.97, 7.35, 0.000, 0.000, 0.000, 15:43:44.707, 1587847424707
147, 98.76, -271.23, 84.08, 15.36, 0.000, 0.000, 0.000, 15:43:44.723, 1587847424723
148, 168.44, -224.54, 115.99, 21.80, 0.000, 0.000, 0.000, 15:43:44.723, 1587847424723
149, 143.14, -239.24, 94.80, 14.85, 0.000, 0.000, 0.000, 15:43:44.725, 1587847424725
150, 115.60, -269.86, 65.12, 10.72, 0.000, 0.000, 0.000, 15:43:44.725, 1587847424725
151, 136.83, -241.72, 88.41, 25.13, 0.000, 0.000, 0.000, 15:43:44.736, 1587847424736
152, 143.04, -237.43, 111.39, 15.89, 0.000, 0.000, 0.000, 15:43:44.736, 1587847424736
153, 105.78, -280.28, 66.60, 4.93, 0.000, 0.000, 0.000, 15:43:44.751, 1587847424751
154, 126.21, -263.31, 87.02, 19.94, 0.000, 0.000, 0.000, 15:43:44.751, 1587847424751
155, 153.12, -237.81, 116.12, 22.39, 0.000, 0.000, 0.000, 15:43:44.753, 1587847424753
156, 120.28, -270.05, 77.49, 5.02, 0.000, 0.000, 0.000, 15:43:44.753, 1587847424753
157, 110.29, -267.90, 72.71, 12.57, 0.000, 0.000, 0.000, 15:43:44.766, 1587847424766
158, 134.37, -249.10, 91.62, 26.34, 0.000, 0.000, 0.000, 15:43:44.766, 1587847424766
159, 146.69, -249.91, 110.22, 13.78, 0.000, 0.000, 0.000, 15:43:44.784, 1587847424784
160, 101.47, -293.83, 69.88, 11.43, 0.000, 0.000, 0.000, 15:43:44.784, 1587847424784
161, 139.61, -243.42, 106.13, 24.16, 0.000, 0.000, 0.000, 15:43:44.785, 1587847424785
162, 139.69, -248.75, 102.34, 20.49, 0.000, 0.000, 0.000, 15:43:44.785, 1587847424785
163, 112.14, -274.88, 79.84, 2.49, 0.000, 0.000, 0.000, 15:43:44.796, 1587847424796
164, 106.43, -261.55, 95.75, 20.78, 0.000, 0.000, 0.000, 15:43:44.796, 1587847424796
165, 139.30, -240.96, 110.49, 25.08, 0.000, 0.000, 0.000, 15:43:44.811, 1587847424811
166, 120.57, -271.55, 79.73, 1.26, 0.000, 0.000, 0.000, 15:43:44.811, 1587847424811
167, 123.62, -274.27, 72.78, 13.75, 0.000, 0.000, 0.000, 15:43:44.812, 1587847424812
168, 135.30, -249.10, 99.85, 24.98, 0.000, 0.000, 0.000, 15:43:44.812, 1587847424812
169, 119.06, -261.61, 95.70, 11.90, 0.000, 0.000, 0.000, 15:43:44.826, 1587847424826
170, 126.23, -266.62, 85.65, 11.00, 0.000, 0.000, 0.000, 15:43:44.826, 1587847424826
171, 131.34, -260.94, 90.02, 24.96, 0.000, 0.000, 0.000, 15:43:44.842, 1587847424842
172, 144.11, -249.65, 104.92, 16.73, 0.000, 0.000, 0.000, 15:43:44.842, 1587847424842
173, 113.70, -281.55, 70.71, 6.66, 0.000, 0.000, 0.000, 15:43:44.842, 1587847424842
174, 131.44, -262.52, 91.66, 17.62, 0.000, 0.000, 0.000, 15:43:44.842, 1587847424842
175, 150.18, -244.02, 110.45, 22.60, 0.000, 0.000, 0.000, 15:43:44.856, 1587847424856
176, 102.05, -264.50, 76.68, 7.48, 0.000, 0.000, 0.000, 15:43:44.856, 1587847424856
177, 114.12, -273.22, 72.78, 10.86, 0.000, 0.000, 0.000, 15:43:44.871, 1587847424871
178, 140.54, -254.00, 104.83, 23.26, 0.000, 0.000, 0.000, 15:43:44.871, 1587847424871
179, 136.08, -266.72, 100.63, 7.33, 0.000, 0.000, 0.000, 15:43:44.872, 1587847424872
180, 112.17, -283.07, 64.36, 6.92, 0.000, 0.000, 0.000, 15:43:44.872, 1587847424872
181, 133.02, -256.93, 101.62, 26.12, 0.000, 0.000, 0.000, 15:43:44.886, 1587847424886
182, 138.18, -247.17, 100.61, 17.45, 0.000, 0.000, 0.000, 15:43:44.886, 1587847424886
183, 112.74, -280.72, 79.42, 4.42, 0.000, 0.000, 0.000, 15:43:44.902, 1587847424902
184, 109.89, -273.34, 79.28, 18.89, 0.000, 0.000, 0.000, 15:43:44.902, 1587847424902
185, 134.19, -238.62, 101.84, 24.31, 0.000, 0.000, 0.000, 15:43:44.902, 1587847424902
186, 112.40, -267.19, 87.63, 6.77, 0.000, 0.000, 0.000, 15:43:44.902, 1587847424902
187, 110.18, -273.40, 85.87, 11.68, 0.000, 0.000, 0.000, 15:43:44.916, 1587847424916
188, 151.89, -243.15, 122.76, 30.77, 0.000, 0.000, 0.000, 15:43:44.916, 1587847424916
189, 131.00, -259.01, 109.16, 11.62, 0.000, 0.000, 0.000, 15:43:44.933, 1587847424933
190, 109.33, -281.06, 81.00, 7.86, 0.000, 0.000, 0.000, 15:43:44.933, 1587847424933
191, 123.92, -259.52, 83.80, 21.68, 0.000, 0.000, 0.000, 15:43:44.933, 1587847424933
192, 146.25, -244.41, 101.99, 18.35, 0.000, 0.000, 0.000, 15:43:44.933, 1587847424933
193, 120.75, -269.36, 80.28, 6.10, 0.000, 0.000, 0.000, 15:43:44.946, 1587847424946
194, 121.41, -275.55, 73.63, 18.08, 0.000, 0.000, 0.000, 15:43:44.946, 1587847424946
195, 117.56, -254.09, 92.02, 22.50, 0.000, 0.000, 0.000, 15:43:44.962, 1587847424962
196, 103.23, -278.81, 70.29, 7.45, 0.000, 0.000, 0.000, 15:43:44.962, 1587847424962
197, 119.53, -283.34, 37.15, 12.24, 0.000, 0.000, 0.000, 15:43:44.963, 1587847424963
198, 180.16, -213.62, 147.20, 26.92, 0.000, 0.000, 0.000, 15:43:44.963, 1587847424963
199, 79.06, -251.53, 106.79, 16.53, 0.000, 0.000, 0.000, 15:43:44.977, 1587847424977
200, -2.82, -319.63, 67.54, 12.01, 0.000, 0.000, 0.000, 15:43:44.977, 1587847424977
0, 105.29, -235.82, 87.69, 26.48, 0.000, 0.000, 0.000, 15:43:44.978, 1587847424978
1, 120.26, -199.66, 164.51, 21.84, 0.000, 0.000, 0.000, 15:43:44.991, 1587847424991
2, 127.17, -272.87, 67.71, 6.90, 0.000, 0.000, 0.000, 15:43:44.991, 1587847424991
3, -40.88, -336.57, 76.89, 19.41, 0.000, 0.000, 0.000, 15:43:45.007, 1587847425007
4, -5.46, -284.52, 133.11, 24.06, 0.000, 0.000, 0.000, 15:43:45.007, 1587847425007
5, 185.18, -254.43, 87.85, 6.15, 0.000, 0.000, 0.000, 15:43:45.008, 1587847425008
6, -34.42, -473.99, 124.30, 13.28, 0.000, 0.000, 0.000, 15:43:45.008, 1587847425008
7, 334.18, -283.82, 177.72, 27.91, 0.000, 0.000, 0.000, 15:43:45.038, 1587847425038
8, 278.68, -180.32, -6.79, 12.38, 0.000, 0.000, 0.000, 15:43:45.038, 1587847425038
9, 173.42, -475.04, 101.95, 11.03, 0.000, 0.000, 0.000, 15:43:45.039, 1587847425039
10, -27.97, -331.63, 124.81, 20.05, 0.000, 0.000, 0.000, 15:43:45.039, 1587847425039
11, 178.41, -170.65, 146.58, 13.36, 0.000, 0.000, 0.000, 15:43:45.039, 1587847425039
12, 230.11, -105.65, 153.51, 2.39, 0.000, 0.000, 0.000, 15:43:45.039, 1587847425039
13, 200.82, -310.16, 91.56, 21.07, 0.000, 0.000, 0.000, 15:43:45.051, 1587847425051
14, 132.38, -257.46, 91.02, 22.60, 0.000, 0.000, 0.000, 15:43:45.051, 1587847425051
15, 84.54, -146.97, 111.66, 6.51, 0.000, 0.000, 0.000, 15:43:45.067, 1587847425067
16, 56.03, -229.84, 192.31, 12.92, 0.000, 0.000, 0.000, 15:43:45.067, 1587847425067
17, 92.78, -149.09, 109.12, 29.20, 0.000, 0.000, 0.000, 15:43:45.068, 1587847425068
18, 116.14, -166.42, 30.06, 10.36, 0.000, 0.000, 0.000, 15:43:45.068, 1587847425068
19, 80.94, -143.48, 84.26, 11.02, 0.000, 0.000, 0.000, 15:43:45.082, 1587847425082
20, 65.70, -100.31, 110.73, 23.07, 0.000, 0.000, 0.000, 15:43:45.082, 1587847425082
21, -89.25, -199.75, -1.08, 13.90, 0.000, 0.000, 0.000, 15:43:45.096, 1587847425096
22, 65.01, -134.98, -51.81, 3.64, 0.000, 0.000, 0.000, 15:43:45.096, 1587847425096
23, 139.51, -62.45, 190.87, 22.27, 0.000, 0.000, 0.000, 15:43:45.097, 1587847425097
24, 151.78, -18.89, 152.69, 24.81, 0.000, 0.000, 0.000, 15:43:45.097, 1587847425097
25, 51.58, -126.76, 120.71, 6.41, 0.000, 0.000, 0.000, 15:43:45.111, 1587847425111
26, 48.13, -67.02, 108.23, 14.37, 0.000, 0.000, 0.000, 15:43:45.111, 1587847425111
27, 57.77, -21.16, 71.67, 29.63, 0.000, 0.000, 0.000, 15:43:45.127, 1587847425127
28, 44.34, -58.82, 24.69, 13.07, 0.000, 0.000, 0.000, 15:43:45.127, 1587847425127
29, 22.95, -61.54, 59.75, 8.95, 0.000, 0.000, 0.000, 15:43:45.129, 1587847425129
30, 25.64, -42.24, 128.97, 23.83, 0.000, 0.000, 0.000, 15:43:45.129, 1587847425129
31, 23.60, -46.75, 109.87, 13.37, 0.000, 0.000, 0.000, 15:43:45.142, 1587847425142
32, 16.81, -62.35, 76.24, 6.58, 0.000, 0.000, 0.000, 15:43:45.142, 1587847425142
33, 6.90, -63.69, 69.17, 22.20, 0.000, 0.000, 0.000, 15:43:45.157, 1587847425157
34, 45.44, -36.90, 96.41, 19.53, 0.000, 0.000, 0.000, 15:43:45.157, 1587847425157
35, 37.11, -53.67, 81.09, 7.63, 0.000, 0.000, 0.000, 15:43:45.158, 1587847425158
36, 34.89, -71.66, 76.45, 15.78, 0.000, 0.000, 0.000, 15:43:45.158, 1587847425158
37, 52.70, -60.23, 91.71, 27.33, 0.000, 0.000, 0.000, 15:43:45.172, 1587847425172
38, 52.23, -63.05, 90.69, 12.21, 0.000, 0.000, 0.000, 15:43:45.172, 1587847425172
39, 30.45, -99.93, 68.84, 8.59, 0.000, 0.000, 0.000, 15:43:45.188, 1587847425188
40, 59.88, -83.60, 92.98, 24.46, 0.000, 0.000, 0.000, 15:43:45.188, 1587847425188
41, 77.62, -83.22, 114.88, 18.61, 0.000, 0.000, 0.000, 15:43:45.189, 1587847425189
42, 50.04, -122.46, 82.21, 6.52, 0.000, 0.000, 0.000, 15:43:45.189, 1587847425189
43, 63.15, -123.22, 91.28, 15.36, 0.000, 0.000, 0.000, 15:43:45.202, 1587847425202
44, 84.79, -120.11, 99.19, 20.57, 0.000, 0.000, 0.000, 15:43:45.202, 1587847425202
45, 67.70, -138.12, 80.94, 7.43, 0.000, 0.000, 0.000, 15:43:45.217, 1587847425217
46, 69.29, -152.58, 74.78, 18.01, 0.000, 0.000, 0.000, 15:43:45.217, 1587847425217
47, 104.99, -137.72, 109.82, 26.87, 0.000, 0.000, 0.000, 15:43:45.218, 1587847425218
48, 97.32, -161.57, 90.39, 17.33, 0.000, 0.000, 0.000, 15:43:45.218, 1587847425218
49, 83.04, -183.45, 79.38, 10.66, 0.000, 0.000, 0.000, 15:43:45.231, 1587847425231
50, 102.36, -165.09, 92.70, 22.79, 0.000, 0.000, 0.000, 15:43:45.231, 1587847425231
51, 117.56, -176.62, 96.81, 17.95, 0.000, 0.000, 0.000, 15:43:45.250, 1587847425250
52, 90.66, -200.11, 68.37, 4.57, 0.000, 0.000, 0.000, 15:43:45.250, 1587847425250
53, 107.65, -188.87, 81.76, 22.87, 0.000, 0.000, 0.000, 15:43:45.251, 1587847425251
54, 125.85, -178.24, 93.34, 19.63, 0.000, 0.000, 0.000, 15:43:45.251, 1587847425251
55, 115.29, -202.20, 87.71, 8.53, 0.000, 0.000, 0.000, 15:43:45.261, 1587847425261
56, 117.34, -189.52, 86.04, 16.84, 0.000, 0.000, 0.000, 15:43:45.261, 1587847425261
57, 119.07, -191.87, 69.81, 26.04, 0.000, 0.000, 0.000, 15:43:45.278, 1587847425278
58, 127.93, -187.38, 74.09, 8.72, 0.000, 0.000, 0.000, 15:43:45.278, 1587847425278
59, 104.24, -217.31, 55.72, 14.04, 0.000, 0.000, 0.000, 15:43:45.279, 1587847425279
60, 145.49, -190.62, 84.33, 25.09, 0.000, 0.000, 0.000, 15:43:45.279, 1587847425279
61, 151.88, -202.88, 95.60, 20.64, 0.000, 0.000, 0.000, 15:43:45.308, 1587847425308
62, 113.74, -213.27, 66.30, 5.04, 0.000, 0.000, 0.000, 15:43:45.308, 1587847425308
63, 126.06, -201.36, 70.88, 17.91, 0.000, 0.000, 0.000, 15:43:45.309, 1587847425309
64, 147.76, -190.55, 83.25, 28.34, 0.000, 0.000, 0.000, 15:43:45.309, 1587847425309
65, 125.17, -238.71, 42.13, 10.18, 0.000, 0.000, 0.000, 15:43:45.309, 1587847425309
66, 122.87, -219.70, 72.04, 14.09, 0.000, 0.000, 0.000, 15:43:45.309, 1587847425309
67, 142.35, -200.56, 85.57, 28.88, 0.000, 0.000, 0.000, 15:43:45.322, 1587847425322
68, 139.68, -206.99, 84.79, 12.56, 0.000, 0.000, 0.000, 15:43:45.322, 1587847425322
69, 114.35, -230.01, 56.38, 9.09, 0.000, 0.000, 0.000, 15:43:45.337, 1587847425337
70, 130.21, -213.44, 74.95, 27.10, 0.000, 0.000, 0.000, 15:43:45.337, 1587847425337
71, 150.04, -203.35, 87.35, 19.76, 0.000, 0.000, 0.000, 15:43:45.339, 1587847425339
72, 123.76, -236.99, 56.81, 7.75, 0.000, 0.000, 0.000, 15:43:45.339, 1587847425339
73, 126.79, -226.35, 66.95, 23.11, 0.000, 0.000, 0.000, 15:43:45.351, 1587847425351
74, 152.68, -212.12, 89.04, 26.81, 0.000, 0.000, 0.000, 15:43:45.351, 1587847425351
75, 141.03, -239.85, 73.40, 7.75, 0.000, 0.000, 0.000, 15:43:45.367, 1587847425367
76, 137.11, -227.08, 72.73, 16.74, 0.000, 0.000, 0.000, 15:43:45.367, 1587847425367
77, 151.07, -218.02, 90.44, 28.31, 0.000, 0.000, 0.000, 15:43:45.369, 1587847425369
78, 126.35, -237.02, 67.09, 14.25, 0.000, 0.000, 0.000, 15:43:45.369, 1587847425369
79, 100.22, -255.76, 41.93, 5.95, 0.000, 0.000, 0.000, 15:43:45.382, 1587847425382
80, 158.70, -216.83, 90.29, 22.67, 0.000, 0.000, 0.000, 15:43:45.382, 1587847425382
81, 161.92, -199.20, 105.59, 21.02, 0.000, 0.000, 0.000, 15:43:45.397, 1587847425397
82, 137.59, -236.51, 72.26, 4.80, 0.000, 0.000, 0.000, 15:43:45.397, 1587847425397
83, 138.88, -238.22, 75.42, 21.22, 0.000, 0.000, 0.000, 15:43:45.398, 1587847425398
84, 148.77, -230.40, 89.49, 20.40, 0.000, 0.000, 0.000, 15:43:45.398, 1587847425398
85, 139.48, -234.07, 90.62, 2.72, 0.000, 0.000, 0.000, 15:43:45.411, 1587847425411
86, 129.27, -257.23, 61.93, 15.17, 0.000, 0.000, 0.000, 15:43:45.411, 1587847425411
87, 147.09, -235.32, 78.76, 26.39, 0.000, 0.000, 0.000, 15:43:45.428, 1587847425428
88, 139.93, -244.89, 81.05, 15.17, 0.000, 0.000, 0.000, 15:43:45.428, 1587847425428
89, 123.83, -261.55, 66.06, 10.76, 0.000, 0.000, 0.000, 15:43:45.429, 1587847425429
90, 148.42, -240.84, 90.59, 25.38, 0.000, 0.000, 0.000, 15:43:45.429, 1587847425429
91, 165.46, -223.76, 107.14, 24.08, 0.000, 0.000, 0.000, 15:43:45.442, 1587847425442
92, 116.54, -272.42, 60.35, 11.04, 0.000, 0.000, 0.000, 15:43:45.442, 1587847425442
93, 131.18, -250.92, 90.50, 21.99, 0.000, 0.000, 0.000, 15:43:45.457, 1587847425457
94, 154.50, -235.86, 104.14, 21.96, 0.000, 0.000, 0.000, 15:43:45.457, 1587847425457
95, 132.54, -262.72, 84.74, 8.93, 0.000, 0.000, 0.000, 15:43:45.458, 1587847425458
96, 122.20, -267.06, 75.16, 15.50, 0.000, 0.000, 0.000, 15:43:45.458, 1587847425458
97, 148.41, -245.28, 103.98, 25.17, 0.000, 0.000, 0.000, 15:43:45.472, 1587847425472
98, 140.27, -252.65, 92.82, 15.33, 0.000, 0.000, 0.000, 15:43:45.472, 1587847425472
99, 91.68, -293.68, 63.29, 6.96, 0.000, 0.000, 0.000, 15:43:45.487, 1587847425487
100, 139.70, -253.94, 86.40, 25.09, 0.000, 0.000, 0.000, 15:43:45.488, 1587847425488
101, 147.00, -234.87, 107.27, 18.59, 0.000, 0.000, 0.000, 15:43:45.488, 1587847425488
102, 128.66, -271.39, 87.71, 6.11, 0.000, 0.000, 0.000, 15:43:45.488, 1587847425488
103, 134.95, -267.49, 83.60, 17.76, 0.000, 0.000, 0.000, 15:43:45.501, 1587847425501
104, 152.79, -246.61, 99.51, 22.19, 0.000, 0.000, 0.000, 15:43:45.501, 1587847425501
105, 137.47, -258.17, 86.67, 4.56, 0.000, 0.000, 0.000, 15:43:45.517, 1587847425517
106, 117.61, -280.01, 68.98, 13.98, 0.000, 0.000, 0.000, 15:43:45.517, 1587847425517
107, 146.61, -250.55, 97.64, 27.17, 0.000, 0.000, 0.000, 15:43:45.520, 1587847425520
108, 142.70, -257.27, 94.27, 6.81, 0.000, 0.000, 0.000, 15:43:45.520, 1587847425520
109, 120.54, -278.57, 75.27, 7.09, 0.000, 0.000, 0.000, 15:43:45.531, 1587847425531
110, 138.07, -269.87, 82.43, 22.92, 0.000, 0.000, 0.000, 15:43:45.531, 1587847425531
111, 151.49, -254.76, 83.56, 17.16, 0.000, 0.000, 0.000, 15:43:45.547, 1587847425547
112, 119.54, -286.21, 65.52, 2.47, 0.000, 0.000, 0.000, 15:43:45.547, 1587847425547
113, 140.19, -255.80, 104.34, 18.54, 0.000, 0.000, 0.000, 15:43:45.548, 1587847425548
114, 160.37, -228.23, 118.02, 24.44, 0.000, 0.000, 0.000, 15:43:45.548, 1587847425548
115, 132.02, -270.00, 83.35, 8.12, 0.000, 0.000, 0.000, 15:43:45.568, 1587847425568
116, 127.19, -279.06, 78.65, 11.22, 0.000, 0.000, 0.000, 15:43:45.568, 1587847425568
117, 146.72, -258.64, 95.78, 22.61, 0.000, 0.000, 0.000, 15:43:45.577, 1587847425577
118, 140.77, -261.34, 94.96, 11.46, 0.000, 0.000, 0.000, 15:43:45.577, 1587847425577
119, 116.41, -287.85, 69.59, 8.56, 0.000, 0.000, 0.000, 15:43:45.577, 1587847425577
120, 147.31, -271.48, 95.31, 20.70, 0.000, 0.000, 0.000, 15:43:45.577, 1587847425577
121, 161.01, -250.21, 110.51, 18.37, 0.000, 0.000, 0.000, 15:43:45.591, 1587847425591
122, 116.18, -288.88, 74.11, 6.75, 0.000, 0.000, 0.000, 15:43:45.591, 1587847425591
123, 121.43, -283.19, 84.59, 22.04, 0.000, 0.000, 0.000, 15:43:45.607, 1587847425607
124, 167.44, -244.74, 108.47, 23.70, 0.000, 0.000, 0.000, 15:43:45.607, 1587847425607
125, 133.57, -272.71, 82.76, 4.86, 0.000, 0.000, 0.000, 15:43:45.608, 1587847425608
126, 130.80, -280.13, 90.90, 13.19, 0.000, 0.000, 0.000, 15:43:45.608, 1587847425608
127, 156.94, -259.59, 91.16, 28.05, 0.000, 0.000, 0.000, 15:43:45.638, 1587847425638
128, 150.15, -268.25, 92.34, 15.06, 0.000, 0.000, 0.000, 15:43:45.638, 1587847425638
129, 114.35, -272.75, 71.28, 6.77, 0.000, 0.000, 0.000, 15:43:45.639, 1587847425639
130, 141.55, -261.65, 96.86, 18.55, 0.000, 0.000, 0.000, 15:43:45.639, 1587847425639
131, 168.91, -257.73, 109.92, 17.59, 0.000, 0.000, 0.000, 15:43:45.640, 1587847425640
132, 128.94, -291.70, 71.24, 0.53, 0.000, 0.000, 0.000, 15:43:45.640, 1587847425640
133, 113.35, -289.22, 80.19, 16.00, 0.000, 0.000, 0.000, 15:43:45.653, 1587847425653
134, 147.09, -245.49, 106.36, 22.24, 0.000, 0.000, 0.000, 15:43:45.653, 1587847425653
135, 146.29, -245.02, 98.66, 6.36, 0.000, 0.000, 0.000, 15:43:45.667, 1587847425667
136, 137.98, -261.94, 87.33, 12.40, 0.000, 0.000, 0.000, 15:43:45.667, 1587847425667
137, 117.44, -263.89, 80.25, 29.75, 0.000, 0.000, 0.000, 15:43:45.668, 1587847425668
138, 100.49, -300.53, 63.00, 10.34, 0.000, 0.000, 0.000, 15:43:45.668, 1587847425668
139, 150.81, -252.51, 117.08, 12.18, 0.000, 0.000, 0.000, 15:43:45.681, 1587847425681
140, 137.18, -275.21, 77.42, 30.42, 0.000, 0.000, 0.000, 15:43:45.681, 1587847425681
141, 127.39, -271.42, 111.70, 21.94, 0.000, 0.000, 0.000, 15:43:45.698, 1587847425698
142, 104.22, -304.02, 82.32, 4.02, 0.000, 0.000, 0.000, 15:43:45.698, 1587847425698
143, 150.19, -232.96, 105.54, 21.44, 0.000, 0.000, 0.000, 15:43:45.700, 1587847425700
144, 59.59, -273.17, 86.87, 23.12, 0.000, 0.000, 0.000, 15:43:45.700, 1587847425700
145, 27.80, -300.73, 95.61, 9.14, 0.000, 0.000, 0.000, 15:43:45.711, 1587847425711
146, 243.61, -224.90, 125.69, 11.62, 0.000, 0.000, 0.000, 15:43:45.711, 1587847425711
147, 78.93, -272.14, 133.51, 24.36, 0.000, 0.000, 0.000, 15:43:45.727, 1587847425727
148, 120.22, -331.82, 118.46, 11.80, 0.000, 0.000, 0.000, 15:43:45.727, 1587847425727
149, -43.47, -454.38, 78.75, 10.21, 0.000, 0.000, 0.000, 15:43:45.730, 1587847425730
150, 326.36, -195.19, 188.17, 26.50, 0.000, 0.000, 0.000, 15:43:45.730, 1587847425730
151, 293.67, -214.42, 101.18, 16.40, 0.000, 0.000, 0.000, 15:43:45.741, 1587847425741
152, 134.14, -293.64, 67.52, 9.01, 0.000, 0.000, 0.000, 15:43:45.741, 1587847425741
153, 16.03, -546.55, 21.35, 15.87, 0.000, 0.000, 0.000, 15:43:45.757, 1587847425757
154, 286.58, -167.60, 186.53, 25.45, 0.000, 0.000, 0.000, 15:43:45.757, 1587847425757
155, 109.96, -315.63, 54.33, 7.48, 0.000, 0.000, 0.000, 15:43:45.758, 1587847425758
156, 67.68, -420.40, 33.07, 12.77, 0.000, 0.000, 0.000, 15:43:45.758, 1587847425758
157, 121.78, -187.38, 215.53, 29.75, 0.000, 0.000, 0.000, 15:43:45.771, 1587847425771
158, 289.12, -132.80, 172.28, 11.33, 0.000, 0.000, 0.000, 15:43:45.771, 1587847425771
159, 157.85, -281.89, 76.01, 6.95, 0.000, 0.000, 0.000, 15:43:45.787, 1587847425787
160, 172.94, -178.52, 77.06, 23.56, 0.000, 0.000, 0.000, 15:43:45.787, 1587847425787
161, 87.96, -252.82, -31.10, 19.85, 0.000, 0.000, 0.000, 15:43:45.788, 1587847425788
162, -113.28, -368.66, 138.63, 2.98, 0.000, 0.000, 0.000, 15:43:45.788, 1587847425788
163, 184.23, -198.57, 94.22, 16.25, 0.000, 0.000, 0.000, 15:43:45.817, 1587847425817
164, 161.06, 0.82, 113.00, 24.40, 0.000, 0.000, 0.000, 15:43:45.817, 1587847425817
165, 189.32, -163.11, 65.24, 11.09, 0.000, 0.000, 0.000, 15:43:45.818, 1587847425818
166, 95.35, -153.14, -134.22, 13.79, 0.000, 0.000, 0.000, 15:43:45.818, 1587847425818
167, 83.04, 18.73, 203.65, 29.19, 0.000, 0.000, 0.000, 15:43:45.818, 1587847425818
168, 70.38, -44.82, 176.21, 13.50, 0.000, 0.000, 0.000, 15:43:45.818, 1587847425818
169, 95.40, -68.98, 61.29, 7.34, 0.000, 0.000, 0.000, 15:43:45.831, 1587847425831
170, 21.44, -47.05, 28.50, 24.71, 0.000, 0.000, 0.000, 15:43:45.831, 1587847425831
171, 57.04, -37.16, 28.83, 17.04, 0.000, 0.000, 0.000, 15:43:45.846, 1587847425846
172, -16.77, -73.23, -30.87, 5.71, 0.000, 0.000, 0.000, 15:43:45.846, 1587847425846
173, 24.05, 27.83, -135.10, 17.10, 0.000, 0.000, 0.000, 15:43:45.847, 1587847425847
174, 141.46, 128.88, 247.31, 24.63, 0.000, 0.000, 0.000, 15:43:45.847, 1587847425847
175, 54.12, -40.06, 116.84, 11.86, 0.000, 0.000, 0.000, 15:43:45.861, 1587847425861
176, -15.01, -56.42, 63.54, 18.16, 0.000, 0.000, 0.000, 15:43:45.861, 1587847425861
177, -16.03, 67.66, 73.60, 28.35, 0.000, 0.000, 0.000, 15:43:45.877, 1587847425877
178, -187.36, 39.43, 73.36, 12.71, 0.000, 0.000, 0.000, 15:43:45.877, 1587847425877
179, 142.65, 31.46, -7.65, 14.67, 0.000, 0.000, 0.000, 15:43:45.877, 1587847425877
180, 94.24, 48.88, 43.73, 23.34, 0.000, 0.000, 0.000, 15:43:45.877, 1587847425877
181, 51.69, 47.57, 64.95, 17.17, 0.000, 0.000, 0.000, 15:43:45.891, 1587847425891
182, -4.90, 28.67, 42.11, 7.71, 0.000, 0.000, 0.000, 15:43:45.891, 1587847425891
183, 19.92, 10.16, 30.13, 16.00, 0.000, 0.000, 0.000, 15:43:45.908, 1587847425908
184, 23.96, 27.85, 47.74, 25.43, 0.000, 0.000, 0.000, 15:43:45.908, 1587847425908
185, 13.51, 19.04, 53.49, 9.95, 0.000, 0.000, 0.000, 15:43:45.909, 1587847425909
186, 7.05, 1.04, 35.85, 10.15, 0.000, 0.000, 0.000, 15:43:45.909, 1587847425909
187, 36.07, 26.24, 63.86, 26.49, 0.000, 0.000, 0.000, 15:43:45.921, 1587847425921
188, 27.58, 3.46, 63.59, 18.34, 0.000, 0.000, 0.000, 15:43:45.921, 1587847425921
189, 12.88, -20.24, 51.56, 6.78, 0.000, 0.000, 0.000, 15:43:45.939, 1587847425939
190, 37.08, -2.25, 62.08, 23.12, 0.000, 0.000, 0.000, 15:43:45.939, 1587847425939
191, 50.70, -10.67, 60.89, 19.49, 0.000, 0.000, 0.000, 15:43:45.941, 1587847425941
192, 39.66, -47.73, 43.42, 3.90, 0.000, 0.000, 0.000, 15:43:45.941, 1587847425941
193, 37.03, -61.42, 40.13, 20.15, 0.000, 0.000, 0.000, 15:43:45.951, 1587847425951
194, 83.22, -28.47, 82.71, 24.67, 0.000, 0.000, 0.000, 15:43:45.951, 1587847425951
195, 75.36, -78.70, 49.13, 11.27, 0.000, 0.000, 0.000, 15:43:45.967, 1587847425967
196, 62.41, -99.79, 32.32, 13.55, 0.000, 0.000, 0.000, 15:43:45.967, 1587847425967
197, 88.90, -84.60, 71.01, 26.72, 0.000, 0.000, 0.000, 15:43:45.969, 1587847425969
198, 101.04, -84.73, 76.25, 13.96, 0.000, 0.000, 0.000, 15:43:45.969, 1587847425969
199, 84.90, -131.51, 29.01, 7.00, 0.000, 0.000, 0.000, 15:43:45.982, 1587847425982
200, 113.84, -119.24, 54.45, 18.99, 0.000, 0.000, 0.000, 15:43:45.982, 1587847425982
0, 131.03, -120.79, 61.44, 16.91, 0.000, 0.000, 0.000, 15:43:45.983, 1587847425983
1, 105.52, -151.75, 32.10, 7.85, 0.000, 0.000, 0.000, 15:43:45.997, 1587847425997
2, 111.58, -155.76, 51.86, 18.41, 0.000, 0.000, 0.000, 15:43:45.997, 1587847425997
3, 134.10, -147.46, 70.86, 21.62, 0.000, 0.000, 0.000, 15:43:46.012, 1587847426012
4, 116.77, -170.13, 45.28, 9.04, 0.000, 0.000, 0.000, 15:43:46.012, 1587847426012
5, 108.89, -173.05, 45.46, 13.59, 0.000, 0.000, 0.000, 15:43:46.012, 1587847426012
6, 135.46, -169.61, 55.17, 25.50, 0.000, 0.000, 0.000, 15:43:46.012, 1587847426012
7, 134.01, -180.86, 55.50, 13.70, 0.000, 0.000, 0.000, 15:43:46.026, 1587847426026
8, 123.39, -183.94, 51.02, 10.17, 0.000, 0.000, 0.000, 15:43:46.026, 1587847426026
9, 125.27, -176.95, 51.92, 29.09, 0.000, 0.000, 0.000, 15:43:46.043, 1587847426043
10, 142.32, -170.70, 69.34, 20.03, 0.000, 0.000, 0.000, 15:43:46.043, 1587847426043
