%OpenBCI Raw EEG Data
%Number of channels = 4
%Sample Rate = 200.0 Hz
%First Column = SampleIndex
%Last Column = Timestamp 
%Other Columns = EEG data in microvolts followed by Accel Data (in G) interleaved with Aux Data
0, 97.02, -272.57, 110.64, 19.96, 0.000, 0.000, 0.000, 15:42:22.068, 1587847342068
1, 110.54, -262.96, 124.58, 17.33, 0.000, 0.000, 0.000, 15:42:22.082, 1587847342082
2, 111.88, -265.74, 114.76, 9.00, 0.000, 0.000, 0.000, 15:42:22.082, 1587847342082
3, 86.04, -283.57, 102.23, 19.46, 0.000, 0.000, 0.000, 15:42:22.097, 1587847342097
4, 125.73, -255.06, 129.52, 18.48, 0.000, 0.000, 0.000, 15:42:22.097, 1587847342097
5, 108.15, -266.13, 110.50, 6.30, 0.000, 0.000, 0.000, 15:42:22.098, 1587847342098
6, 89.85, -284.35, 97.26, 19.18, 0.000, 0.000, 0.000, 15:42:22.098, 1587847342098
7, 115.73, -252.13, 126.54, 21.78, 0.000, 0.000, 0.000, 15:42:22.111, 1587847342111
8, 117.78, -256.75, 122.72, 11.78, 0.000, 0.000, 0.000, 15:42:22.111, 1587847342111
9, 97.80, -275.11, 102.54, 12.00, 0.000, 0.000, 0.000, 15:42:22.143, 1587847342143
10, 110.45, -265.25, 112.82, 23.19, 0.000, 0.000, 0.000, 15:42:22.143, 1587847342143
11, 117.72, -251.84, 127.16, 15.61, 0.000, 0.000, 0.000, 15:42:22.145, 1587847342145
12, 86.14, -284.69, 93.25, 9.81, 0.000, 0.000, 0.000, 15:42:22.145, 1587847342145
13, 95.53, -267.83, 107.31, 17.75, 0.000, 0.000, 0.000, 15:42:22.146, 1587847342146
14, 116.65, -255.30, 122.67, 19.24, 0.000, 0.000, 0.000, 15:42:22.146, 1587847342146
15, 103.77, -273.17, 101.23, 6.58, 0.000, 0.000, 0.000, 15:42:22.148, 1587847342148
16, 86.82, -283.03, 91.73, 12.45, 0.000, 0.000, 0.000, 15:42:22.148, 1587847342148
17, 126.58, -248.16, 129.14, 20.71, 0.000, 0.000, 0.000, 15:42:22.156, 1587847342156
18, 120.09, -257.46, 122.20, 13.52, 0.000, 0.000, 0.000, 15:42:22.156, 1587847342156
19, 84.45, -285.96, 89.40, 5.96, 0.000, 0.000, 0.000, 15:42:22.172, 1587847342172
20, 113.44, -257.25, 117.67, 25.14, 0.000, 0.000, 0.000, 15:42:22.172, 1587847342172
21, 127.35, -247.12, 127.82, 18.33, 0.000, 0.000, 0.000, 15:42:22.188, 1587847342188
22, 88.47, -288.02, 84.28, 9.52, 0.000, 0.000, 0.000, 15:42:22.188, 1587847342188
23, 110.39, -265.33, 103.21, 18.47, 0.000, 0.000, 0.000, 15:42:22.194, 1587847342194
24, 130.62, -239.46, 130.85, 23.72, 0.000, 0.000, 0.000, 15:42:22.194, 1587847342194
25, 103.80, -273.70, 100.81, 4.62, 0.000, 0.000, 0.000, 15:42:22.201, 1587847342201
26, 89.99, -285.11, 89.29, 14.88, 0.000, 0.000, 0.000, 15:42:22.201, 1587847342201
27, 135.53, -239.69, 134.22, 31.35, 0.000, 0.000, 0.000, 15:42:22.217, 1587847342217
28, 110.52, -266.75, 109.90, 6.72, 0.000, 0.000, 0.000, 15:42:22.217, 1587847342217
29, 66.67, -308.03, 70.19, 0.42, 0.000, 0.000, 0.000, 15:42:22.218, 1587847342218
30, 133.05, -239.39, 127.75, 36.86, 0.000, 0.000, 0.000, 15:42:22.218, 1587847342218
31, 170.81, -206.66, 165.75, 33.03, 0.000, 0.000, 0.000, 15:42:22.231, 1587847342231
32, 49.67, -320.71, 42.29, -22.09, 0.000, 0.000, 0.000, 15:42:22.231, 1587847342231
33, 3.21, -364.66, -0.13, -7.93, 0.000, 0.000, 0.000, 15:42:22.247, 1587847342247
34, 200.54, -171.79, 203.12, 71.88, 0.000, 0.000, 0.000, 15:42:22.247, 1587847342247
35, 148.56, -233.75, 139.99, 8.25, 0.000, 0.000, 0.000, 15:42:22.248, 1587847342248
36, -12.09, -392.96, -28.59, -33.31, 0.000, 0.000, 0.000, 15:42:22.248, 1587847342248
37, 152.35, -226.62, 144.65, 58.94, 0.000, 0.000, 0.000, 15:42:22.261, 1587847342261
38, 215.83, -169.24, 205.01, 39.42, 0.000, 0.000, 0.000, 15:42:22.261, 1587847342261
39, 10.64, -373.00, -12.05, -37.74, 0.000, 0.000, 0.000, 15:42:22.277, 1587847342277
40, 81.50, -311.22, 55.19, 26.47, 0.000, 0.000, 0.000, 15:42:22.277, 1587847342277
41, 247.48, -143.12, 221.32, 66.07, 0.000, 0.000, 0.000, 15:42:22.278, 1587847342278
42, 71.92, -308.47, 59.52, -24.45, 0.000, 0.000, 0.000, 15:42:22.278, 1587847342278
43, 7.15, -366.09, -6.56, -7.74, 0.000, 0.000, 0.000, 15:42:22.295, 1587847342295
44, 217.37, -163.03, 198.57, 73.00, 0.000, 0.000, 0.000, 15:42:22.295, 1587847342295
45, 155.29, -220.17, 140.41, 8.15, 0.000, 0.000, 0.000, 15:42:22.309, 1587847342309
46, -14.99, -378.76, -22.73, -36.96, 0.000, 0.000, 0.000, 15:42:22.309, 1587847342309
47, 163.82, -212.39, 149.78, 57.45, 0.000, 0.000, 0.000, 15:42:22.313, 1587847342313
48, 223.80, -160.12, 200.45, 43.15, 0.000, 0.000, 0.000, 15:42:22.313, 1587847342313
49, 2.93, -372.53, -6.89, -38.79, 0.000, 0.000, 0.000, 15:42:22.322, 1587847342322
50, 77.63, -292.27, 68.33, 25.59, 0.000, 0.000, 0.000, 15:42:22.322, 1587847342322
51, 237.12, -129.67, 227.88, 66.80, 0.000, 0.000, 0.000, 15:42:22.338, 1587847342338
52, 76.79, -303.05, 56.51, -24.47, 0.000, 0.000, 0.000, 15:42:22.338, 1587847342338
53, 12.01, -367.97, -7.63, -9.12, 0.000, 0.000, 0.000, 15:42:22.340, 1587847342340
54, 229.76, -156.88, 207.40, 78.20, 0.000, 0.000, 0.000, 15:42:22.340, 1587847342340
55, 172.07, -222.89, 139.26, 12.29, 0.000, 0.000, 0.000, 15:42:22.351, 1587847342351
56, 4.63, -386.15, -20.16, -31.05, 0.000, 0.000, 0.000, 15:42:22.351, 1587847342351
57, 166.88, -221.46, 145.30, 59.20, 0.000, 0.000, 0.000, 15:42:22.367, 1587847342367
58, 228.31, -158.58, 211.32, 44.65, 0.000, 0.000, 0.000, 15:42:22.367, 1587847342367
59, 20.35, -363.03, -3.57, -38.00, 0.000, 0.000, 0.000, 15:42:22.368, 1587847342368
60, 81.57, -299.55, 58.60, 23.93, 0.000, 0.000, 0.000, 15:42:22.368, 1587847342368
61, 249.35, -133.22, 232.65, 65.01, 0.000, 0.000, 0.000, 15:42:22.381, 1587847342381
62, 76.88, -300.29, 52.37, -24.88, 0.000, 0.000, 0.000, 15:42:22.381, 1587847342381
63, 5.27, -371.21, -11.80, -8.56, 0.000, 0.000, 0.000, 15:42:22.397, 1587847342397
64, 221.45, -144.95, 209.92, 70.21, 0.000, 0.000, 0.000, 15:42:22.397, 1587847342397
65, 169.07, -215.18, 136.81, 9.94, 0.000, 0.000, 0.000, 15:42:22.399, 1587847342399
66, -4.82, -391.17, -33.46, -35.29, 0.000, 0.000, 0.000, 15:42:22.399, 1587847342399
67, 169.58, -218.53, 135.26, 58.52, 0.000, 0.000, 0.000, 15:42:22.411, 1587847342411
68, 227.83, -159.88, 192.55, 42.58, 0.000, 0.000, 0.000, 15:42:22.411, 1587847342411
69, 8.82, -362.79, -8.44, -41.51, 0.000, 0.000, 0.000, 15:42:22.427, 1587847342427
70, 71.38, -297.93, 63.30, 24.70, 0.000, 0.000, 0.000, 15:42:22.427, 1587847342427
71, 228.66, -147.26, 219.80, 57.89, 0.000, 0.000, 0.000, 15:42:22.428, 1587847342428
72, 57.36, -314.61, 42.14, -30.53, 0.000, 0.000, 0.000, 15:42:22.428, 1587847342428
73, 12.34, -357.30, -4.30, -5.07, 0.000, 0.000, 0.000, 15:42:22.458, 1587847342458
74, 202.59, -164.30, 194.35, 61.57, 0.000, 0.000, 0.000, 15:42:22.458, 1587847342458
75, 127.87, -244.55, 113.69, 1.33, 0.000, 0.000, 0.000, 15:42:22.461, 1587847342461
76, -21.78, -387.48, -23.21, -28.59, 0.000, 0.000, 0.000, 15:42:22.461, 1587847342461
77, 143.26, -229.60, 136.03, 49.18, 0.000, 0.000, 0.000, 15:42:22.462, 1587847342462
78, 186.58, -199.73, 161.49, 29.03, 0.000, 0.000, 0.000, 15:42:22.462, 1587847342462
79, 55.65, -330.55, 31.42, -20.70, 0.000, 0.000, 0.000, 15:42:22.471, 1587847342471
80, 106.46, -275.75, 87.00, 23.22, 0.000, 0.000, 0.000, 15:42:22.471, 1587847342471
81, 187.12, -188.58, 173.82, 38.63, 0.000, 0.000, 0.000, 15:42:22.487, 1587847342487
82, 90.14, -281.41, 77.46, -12.64, 0.000, 0.000, 0.000, 15:42:22.487, 1587847342487
83, 57.10, -319.34, 41.02, 4.08, 0.000, 0.000, 0.000, 15:42:22.489, 1587847342489
84, 183.44, -198.03, 166.33, 52.31, 0.000, 0.000, 0.000, 15:42:22.489, 1587847342489
85, 141.13, -237.16, 123.91, 9.65, 0.000, 0.000, 0.000, 15:42:22.504, 1587847342504
86, 41.72, -332.17, 27.81, -9.41, 0.000, 0.000, 0.000, 15:42:22.504, 1587847342504
87, 148.13, -226.08, 130.46, 40.88, 0.000, 0.000, 0.000, 15:42:22.517, 1587847342517
88, 190.65, -186.79, 165.72, 29.70, 0.000, 0.000, 0.000, 15:42:22.517, 1587847342517
89, 49.57, -327.24, 24.46, -16.89, 0.000, 0.000, 0.000, 15:42:22.520, 1587847342520
90, 99.61, -281.92, 75.96, 25.48, 0.000, 0.000, 0.000, 15:42:22.520, 1587847342520
91, 203.28, -181.21, 176.02, 51.76, 0.000, 0.000, 0.000, 15:42:22.532, 1587847342532
92, 97.52, -284.04, 73.74, -11.58, 0.000, 0.000, 0.000, 15:42:22.532, 1587847342532
93, 48.62, -321.74, 34.80, 1.83, 0.000, 0.000, 0.000, 15:42:22.547, 1587847342547
94, 186.95, -192.06, 173.23, 56.34, 0.000, 0.000, 0.000, 15:42:22.547, 1587847342547
95, 151.66, -230.42, 136.33, 10.40, 0.000, 0.000, 0.000, 15:42:22.547, 1587847342547
96, 23.77, -353.70, 6.49, -17.87, 0.000, 0.000, 0.000, 15:42:22.547, 1587847342547
97, 149.25, -230.65, 136.85, 52.27, 0.000, 0.000, 0.000, 15:42:22.561, 1587847342561
98, 210.01, -178.03, 183.26, 36.86, 0.000, 0.000, 0.000, 15:42:22.561, 1587847342561
99, 43.10, -330.77, 28.43, -22.24, 0.000, 0.000, 0.000, 15:42:22.577, 1587847342577
100, 96.96, -280.37, 76.71, 28.51, 0.000, 0.000, 0.000, 15:42:22.577, 1587847342577
101, 235.88, -153.13, 207.46, 58.10, 0.000, 0.000, 0.000, 15:42:22.578, 1587847342578
102, 93.12, -291.47, 64.17, -13.35, 0.000, 0.000, 0.000, 15:42:22.578, 1587847342578
103, 45.70, -340.80, 16.97, -5.01, 0.000, 0.000, 0.000, 15:42:22.592, 1587847342592
104, 225.76, -169.20, 190.04, 63.49, 0.000, 0.000, 0.000, 15:42:22.592, 1587847342592
105, 164.24, -225.75, 126.76, 8.88, 0.000, 0.000, 0.000, 15:42:22.606, 1587847342606
106, -16.97, -397.01, -48.89, -38.18, 0.000, 0.000, 0.000, 15:42:22.606, 1587847342606
107, 156.65, -230.68, 121.92, 55.11, 0.000, 0.000, 0.000, 15:42:22.607, 1587847342607
108, 234.22, -157.93, 196.62, 43.73, 0.000, 0.000, 0.000, 15:42:22.607, 1587847342607
109, 28.34, -363.04, -12.42, -39.15, 0.000, 0.000, 0.000, 15:42:22.626, 1587847342626
110, 74.14, -309.20, 51.07, 27.33, 0.000, 0.000, 0.000, 15:42:22.626, 1587847342626
111, 250.91, -128.60, 222.59, 67.97, 0.000, 0.000, 0.000, 15:42:22.637, 1587847342637
112, 86.15, -289.37, 57.15, -23.43, 0.000, 0.000, 0.000, 15:42:22.637, 1587847342637
113, 12.09, -365.31, -13.09, -10.38, 0.000, 0.000, 0.000, 15:42:22.639, 1587847342639
114, 234.56, -145.16, 210.63, 75.15, 0.000, 0.000, 0.000, 15:42:22.639, 1587847342639
115, 172.05, -213.43, 138.86, 7.74, 0.000, 0.000, 0.000, 15:42:22.655, 1587847342655
116, -17.28, -389.34, -36.36, -35.44, 0.000, 0.000, 0.000, 15:42:22.655, 1587847342655
117, 160.68, -225.88, 130.52, 56.72, 0.000, 0.000, 0.000, 15:42:22.667, 1587847342667
118, 233.84, -151.76, 200.14, 42.43, 0.000, 0.000, 0.000, 15:42:22.667, 1587847342667
119, 20.27, -361.26, -7.51, -37.35, 0.000, 0.000, 0.000, 15:42:22.668, 1587847342668
120, 78.51, -302.27, 60.51, 28.46, 0.000, 0.000, 0.000, 15:42:22.668, 1587847342668
121, 259.75, -130.98, 232.71, 73.47, 0.000, 0.000, 0.000, 15:42:22.681, 1587847342681
122, 86.55, -303.73, 54.45, -25.14, 0.000, 0.000, 0.000, 15:42:22.681, 1587847342681
123, 24.06, -360.21, -1.79, -13.47, 0.000, 0.000, 0.000, 15:42:22.697, 1587847342697
124, 222.30, -162.02, 187.07, 71.96, 0.000, 0.000, 0.000, 15:42:22.697, 1587847342697
125, 173.87, -214.23, 138.62, 10.97, 0.000, 0.000, 0.000, 15:42:22.698, 1587847342698
126, -6.44, -391.26, -38.65, -40.67, 0.000, 0.000, 0.000, 15:42:22.698, 1587847342698
127, 174.51, -219.10, 137.04, 55.48, 0.000, 0.000, 0.000, 15:42:22.711, 1587847342711
128, 248.27, -142.92, 209.48, 45.30, 0.000, 0.000, 0.000, 15:42:22.711, 1587847342711
129, 22.43, -359.60, -8.03, -38.05, 0.000, 0.000, 0.000, 15:42:22.736, 1587847342736
130, 91.33, -298.56, 57.39, 26.81, 0.000, 0.000, 0.000, 15:42:22.736, 1587847342736
131, 268.34, -126.12, 225.74, 69.91, 0.000, 0.000, 0.000, 15:42:22.738, 1587847342738
132, 100.23, -287.53, 59.76, -18.38, 0.000, 0.000, 0.000, 15:42:22.738, 1587847342738
133, 16.38, -365.52, -15.22, -12.05, 0.000, 0.000, 0.000, 15:42:22.741, 1587847342741
134, 237.39, -150.78, 197.49, 71.63, 0.000, 0.000, 0.000, 15:42:22.741, 1587847342741
135, 168.52, -214.23, 137.25, 8.92, 0.000, 0.000, 0.000, 15:42:22.773, 1587847342773
136, -7.08, -391.42, -38.22, -37.84, 0.000, 0.000, 0.000, 15:42:22.773, 1587847342773
137, 165.67, -222.54, 129.49, 58.22, 0.000, 0.000, 0.000, 15:42:22.774, 1587847342774
138, 253.26, -145.67, 202.17, 48.27, 0.000, 0.000, 0.000, 15:42:22.774, 1587847342774
139, 25.61, -365.30, -15.25, -39.39, 0.000, 0.000, 0.000, 15:42:22.775, 1587847342775
140, 93.31, -302.86, 40.01, 24.87, 0.000, 0.000, 0.000, 15:42:22.775, 1587847342775
141, 266.76, -124.11, 223.46, 72.42, 0.000, 0.000, 0.000, 15:42:22.776, 1587847342776
142, 109.19, -278.21, 64.86, -14.19, 0.000, 0.000, 0.000, 15:42:22.776, 1587847342776
143, 34.06, -347.24, 0.90, -0.20, 0.000, 0.000, 0.000, 15:42:22.786, 1587847342786
144, 243.25, -144.08, 206.81, 83.59, 0.000, 0.000, 0.000, 15:42:22.786, 1587847342786
145, 199.59, -195.57, 149.23, 20.33, 0.000, 0.000, 0.000, 15:42:22.801, 1587847342801
146, 10.03, -384.52, -32.90, -26.22, 0.000, 0.000, 0.000, 15:42:22.801, 1587847342801
147, 179.96, -208.93, 146.21, 69.70, 0.000, 0.000, 0.000, 15:42:22.816, 1587847342816
148, 264.38, -133.15, 214.31, 53.15, 0.000, 0.000, 0.000, 15:42:22.816, 1587847342816
149, 28.17, -365.02, -11.60, -37.56, 0.000, 0.000, 0.000, 15:42:22.818, 1587847342818
150, 82.79, -299.80, 46.81, 22.22, 0.000, 0.000, 0.000, 15:42:22.818, 1587847342818
151, 282.55, -114.42, 236.22, 73.72, 0.000, 0.000, 0.000, 15:42:22.831, 1587847342831
152, 96.73, -291.78, 51.90, -20.35, 0.000, 0.000, 0.000, 15:42:22.831, 1587847342831
153, 21.13, -361.73, -12.58, -12.01, 0.000, 0.000, 0.000, 15:42:22.847, 1587847342847
154, 238.61, -156.54, 198.19, 70.81, 0.000, 0.000, 0.000, 15:42:22.847, 1587847342847
155, 184.15, -208.82, 139.14, 13.38, 0.000, 0.000, 0.000, 15:42:22.847, 1587847342847
156, 2.34, -380.97, -41.18, -39.31, 0.000, 0.000, 0.000, 15:42:22.847, 1587847342847
157, 171.10, -215.09, 124.63, 58.15, 0.000, 0.000, 0.000, 15:42:22.861, 1587847342861
158, 254.36, -141.79, 203.24, 44.93, 0.000, 0.000, 0.000, 15:42:22.861, 1587847342861
159, 37.03, -352.57, -15.20, -37.63, 0.000, 0.000, 0.000, 15:42:22.877, 1587847342877
160, 74.83, -295.19, 49.94, 24.61, 0.000, 0.000, 0.000, 15:42:22.877, 1587847342877
161, 274.20, -115.28, 230.06, 72.85, 0.000, 0.000, 0.000, 15:42:22.878, 1587847342878
162, 111.18, -284.28, 53.35, -19.94, 0.000, 0.000, 0.000, 15:42:22.878, 1587847342878
163, 42.16, -352.05, -12.09, -4.91, 0.000, 0.000, 0.000, 15:42:22.892, 1587847342892
164, 259.90, -133.16, 205.99, 84.49, 0.000, 0.000, 0.000, 15:42:22.892, 1587847342892
165, 200.55, -192.64, 150.67, 18.61, 0.000, 0.000, 0.000, 15:42:22.907, 1587847342907
166, 5.85, -377.87, -36.70, -35.33, 0.000, 0.000, 0.000, 15:42:22.907, 1587847342907
167, 178.33, -213.10, 130.24, 58.27, 0.000, 0.000, 0.000, 15:42:22.907, 1587847342907
168, 249.47, -145.99, 195.62, 45.72, 0.000, 0.000, 0.000, 15:42:22.907, 1587847342907
169, 41.43, -348.69, -11.56, -41.51, 0.000, 0.000, 0.000, 15:42:22.934, 1587847342934
170, 90.10, -294.50, 54.61, 22.16, 0.000, 0.000, 0.000, 15:42:22.934, 1587847342934
171, 273.90, -121.06, 218.11, 72.23, 0.000, 0.000, 0.000, 15:42:22.939, 1587847342939
172, 102.31, -291.14, 51.22, -19.24, 0.000, 0.000, 0.000, 15:42:22.939, 1587847342939
173, 14.69, -372.85, -29.57, -11.89, 0.000, 0.000, 0.000, 15:42:22.939, 1587847342939
174, 248.31, -144.07, 200.09, 78.36, 0.000, 0.000, 0.000, 15:42:22.939, 1587847342939
175, 201.92, -205.30, 133.18, 18.47, 0.000, 0.000, 0.000, 15:42:22.951, 1587847342951
176, 3.05, -386.81, -39.02, -36.53, 0.000, 0.000, 0.000, 15:42:22.951, 1587847342951
177, 180.34, -214.95, 121.64, 57.10, 0.000, 0.000, 0.000, 15:42:22.967, 1587847342967
178, 264.27, -139.02, 207.38, 43.25, 0.000, 0.000, 0.000, 15:42:22.967, 1587847342967
179, 41.69, -349.94, -4.34, -43.23, 0.000, 0.000, 0.000, 15:42:22.969, 1587847342969
180, 76.23, -316.92, 33.05, 13.62, 0.000, 0.000, 0.000, 15:42:22.969, 1587847342969
181, 261.19, -130.79, 216.26, 68.99, 0.000, 0.000, 0.000, 15:42:22.982, 1587847342982
182, 109.38, -283.44, 62.33, -23.46, 0.000, 0.000, 0.000, 15:42:22.982, 1587847342982
183, 11.83, -373.21, -34.12, -23.61, 0.000, 0.000, 0.000, 15:42:22.997, 1587847342997
184, 235.81, -157.56, 190.73, 72.09, 0.000, 0.000, 0.000, 15:42:22.997, 1587847342997
185, 189.93, -204.50, 140.81, 10.99, 0.000, 0.000, 0.000, 15:42:23.002, 1587847343002
186, -1.65, -391.62, -49.33, -46.28, 0.000, 0.000, 0.000, 15:42:23.002, 1587847343002
187, 168.91, -223.06, 125.11, 49.44, 0.000, 0.000, 0.000, 15:42:23.011, 1587847343011
188, 248.50, -150.28, 194.64, 44.97, 0.000, 0.000, 0.000, 15:42:23.011, 1587847343011
189, 27.97, -363.36, -20.60, -45.39, 0.000, 0.000, 0.000, 15:42:23.026, 1587847343026
190, 80.46, -300.11, 43.95, 10.01, 0.000, 0.000, 0.000, 15:42:23.026, 1587847343026
191, 268.56, -126.62, 221.74, 68.92, 0.000, 0.000, 0.000, 15:42:23.028, 1587847343028
192, 100.75, -289.60, 57.20, -22.25, 0.000, 0.000, 0.000, 15:42:23.028, 1587847343028
193, 19.48, -373.16, -35.22, -19.55, 0.000, 0.000, 0.000, 15:42:23.041, 1587847343041
194, 238.95, -153.80, 187.78, 74.39, 0.000, 0.000, 0.000, 15:42:23.041, 1587847343041
195, 181.91, -208.89, 137.60, 6.81, 0.000, 0.000, 0.000, 15:42:23.074, 1587847343074
196, 1.09, -392.04, -56.35, -39.39, 0.000, 0.000, 0.000, 15:42:23.074, 1587847343074
197, 175.17, -223.55, 122.25, 52.74, 0.000, 0.000, 0.000, 15:42:23.076, 1587847343076
198, 243.72, -145.75, 196.36, 47.92, 0.000, 0.000, 0.000, 15:42:23.076, 1587847343076
199, 41.73, -351.40, -2.81, -37.81, 0.000, 0.000, 0.000, 15:42:23.076, 1587847343076
200, 72.66, -319.10, 22.13, 18.17, 0.000, 0.000, 0.000, 15:42:23.076, 1587847343076
0, 268.90, -131.22, 214.96, 72.07, 0.000, 0.000, 0.000, 15:42:23.077, 1587847343077
1, 112.20, -291.00, 47.83, -23.55, 0.000, 0.000, 0.000, 15:42:23.086, 1587847343086
2, 3.72, -383.33, -39.15, -16.95, 0.000, 0.000, 0.000, 15:42:23.086, 1587847343086
3, 243.49, -152.75, 194.27, 78.46, 0.000, 0.000, 0.000, 15:42:23.103, 1587847343103
4, 185.09, -203.04, 139.14, 16.50, 0.000, 0.000, 0.000, 15:42:23.103, 1587847343103
5, -3.54, -391.19, -47.30, -40.94, 0.000, 0.000, 0.000, 15:42:23.104, 1587847343104
6, 168.11, -221.72, 125.28, 51.21, 0.000, 0.000, 0.000, 15:42:23.104, 1587847343104
7, 240.61, -148.72, 197.19, 47.00, 0.000, 0.000, 0.000, 15:42:23.116, 1587847343116
8, 33.20, -356.21, -11.92, -43.68, 0.000, 0.000, 0.000, 15:42:23.116, 1587847343116
9, 69.37, -317.08, 25.07, 14.66, 0.000, 0.000, 0.000, 15:42:23.133, 1587847343133
10, 265.17, -130.04, 219.35, 71.52, 0.000, 0.000, 0.000, 15:42:23.133, 1587847343133
11, 100.40, -286.35, 60.49, -24.41, 0.000, 0.000, 0.000, 15:42:23.133, 1587847343133
12, 7.11, -373.92, -26.21, -17.60, 0.000, 0.000, 0.000, 15:42:23.133, 1587847343133
13, 231.55, -158.94, 189.40, 70.39, 0.000, 0.000, 0.000, 15:42:23.145, 1587847343145
14, 189.65, -207.61, 143.34, 8.84, 0.000, 0.000, 0.000, 15:42:23.146, 1587847343146
15, -3.91, -387.99, -37.57, -40.03, 0.000, 0.000, 0.000, 15:42:23.170, 1587847343170
16, 154.15, -232.15, 122.14, 52.38, 0.000, 0.000, 0.000, 15:42:23.170, 1587847343170
17, 246.58, -150.26, 196.66, 46.93, 0.000, 0.000, 0.000, 15:42:23.175, 1587847343175
18, 30.00, -362.39, -16.24, -43.78, 0.000, 0.000, 0.000, 15:42:23.175, 1587847343175
19, 74.54, -309.36, 36.51, 16.65, 0.000, 0.000, 0.000, 15:42:23.177, 1587847343177
20, 269.04, -126.59, 221.36, 66.93, 0.000, 0.000, 0.000, 15:42:23.177, 1587847343177
21, 109.97, -283.08, 59.14, -24.40, 0.000, 0.000, 0.000, 15:42:23.192, 1587847343192
22, 15.60, -376.24, -35.47, -18.80, 0.000, 0.000, 0.000, 15:42:23.192, 1587847343192
23, 233.39, -161.03, 180.54, 74.12, 0.000, 0.000, 0.000, 15:42:23.193, 1587847343193
24, 186.52, -208.74, 141.76, 14.25, 0.000, 0.000, 0.000, 15:42:23.193, 1587847343193
25, -3.58, -393.80, -43.14, -43.32, 0.000, 0.000, 0.000, 15:42:23.209, 1587847343209
26, 167.15, -220.88, 131.82, 55.20, 0.000, 0.000, 0.000, 15:42:23.209, 1587847343209
27, 245.33, -151.40, 196.23, 49.60, 0.000, 0.000, 0.000, 15:42:23.222, 1587847343222
28, 36.52, -354.12, -7.82, -42.39, 0.000, 0.000, 0.000, 15:42:23.222, 1587847343222
29, 70.35, -320.66, 32.86, 17.38, 0.000, 0.000, 0.000, 15:42:23.223, 1587847343223
30, 269.40, -128.46, 230.80, 68.98, 0.000, 0.000, 0.000, 15:42:23.223, 1587847343223
31, 100.01, -293.91, 55.71, -21.75, 0.000, 0.000, 0.000, 15:42:23.253, 1587847343253
32, 15.12, -377.06, -20.31, -13.44, 0.000, 0.000, 0.000, 15:42:23.253, 1587847343253
33, 229.33, -165.31, 189.70, 73.42, 0.000, 0.000, 0.000, 15:42:23.254, 1587847343254
34, 190.62, -199.49, 144.89, 15.16, 0.000, 0.000, 0.000, 15:42:23.254, 1587847343254
35, -1.16, -383.10, -40.13, -36.84, 0.000, 0.000, 0.000, 15:42:23.257, 1587847343257
36, 160.80, -221.01, 130.68, 56.59, 0.000, 0.000, 0.000, 15:42:23.257, 1587847343257
37, 247.29, -141.60, 210.61, 51.61, 0.000, 0.000, 0.000, 15:42:23.266, 1587847343266
38, 47.51, -343.20, 13.51, -39.86, 0.000, 0.000, 0.000, 15:42:23.266, 1587847343266
39, 72.74, -320.20, 26.15, 18.59, 0.000, 0.000, 0.000, 15:42:23.282, 1587847343282
40, 272.87, -117.23, 227.95, 71.69, 0.000, 0.000, 0.000, 15:42:23.282, 1587847343282
41, 108.77, -280.74, 63.63, -14.47, 0.000, 0.000, 0.000, 15:42:23.285, 1587847343285
42, 21.81, -368.02, -20.90, -13.06, 0.000, 0.000, 0.000, 15:42:23.285, 1587847343285
43, 234.65, -155.39, 195.34, 74.64, 0.000, 0.000, 0.000, 15:42:23.329, 1587847343329
44, 201.18, -193.48, 150.31, 16.80, 0.000, 0.000, 0.000, 15:42:23.329, 1587847343329
45, -8.04, -388.31, -48.10, -37.75, 0.000, 0.000, 0.000, 15:42:23.330, 1587847343330
46, 169.45, -221.77, 120.29, 56.92, 0.000, 0.000, 0.000, 15:42:23.330, 1587847343330
47, 261.50, -133.17, 202.60, 51.23, 0.000, 0.000, 0.000, 15:42:23.331, 1587847343331
48, 39.85, -349.02, -2.42, -36.49, 0.000, 0.000, 0.000, 15:42:23.331, 1587847343331
49, 86.53, -308.35, 40.59, 18.91, 0.000, 0.000, 0.000, 15:42:23.332, 1587847343332
50, 275.64, -134.55, 221.07, 74.87, 0.000, 0.000, 0.000, 15:42:23.332, 1587847343332
51, 108.86, -284.60, 68.97, -21.44, 0.000, 0.000, 0.000, 15:42:23.342, 1587847343342
52, 13.98, -369.34, -25.44, -15.30, 0.000, 0.000, 0.000, 15:42:23.342, 1587847343342
53, 228.64, -157.19, 193.06, 75.27, 0.000, 0.000, 0.000, 15:42:23.343, 1587847343343
54, 191.79, -199.88, 145.76, 16.59, 0.000, 0.000, 0.000, 15:42:23.343, 1587847343343
55, -5.56, -394.14, -46.10, -45.11, 0.000, 0.000, 0.000, 15:42:23.356, 1587847343356
56, 161.20, -228.05, 119.81, 50.49, 0.000, 0.000, 0.000, 15:42:23.356, 1587847343356
57, 237.99, -152.45, 189.82, 48.83, 0.000, 0.000, 0.000, 15:42:23.377, 1587847343377
58, 33.52, -356.77, -14.45, -40.36, 0.000, 0.000, 0.000, 15:42:23.377, 1587847343377
59, 64.57, -327.60, 30.80, 9.44, 0.000, 0.000, 0.000, 15:42:23.379, 1587847343379
60, 251.40, -135.81, 221.42, 68.96, 0.000, 0.000, 0.000, 15:42:23.379, 1587847343379
61, 110.90, -289.24, 53.80, -22.15, 0.000, 0.000, 0.000, 15:42:23.386, 1587847343386
62, 11.46, -377.65, -43.27, -15.49, 0.000, 0.000, 0.000, 15:42:23.386, 1587847343386
63, 233.02, -160.16, 185.65, 69.89, 0.000, 0.000, 0.000, 15:42:23.403, 1587847343403
64, 196.96, -193.15, 154.67, 12.91, 0.000, 0.000, 0.000, 15:42:23.403, 1587847343403
65, -14.58, -398.71, -48.69, -47.98, 0.000, 0.000, 0.000, 15:42:23.407, 1587847343407
66, 151.53, -232.78, 115.39, 50.13, 0.000, 0.000, 0.000, 15:42:23.407, 1587847343407
67, 236.35, -154.70, 186.57, 52.93, 0.000, 0.000, 0.000, 15:42:23.416, 1587847343416
68, 38.55, -348.54, -18.60, -42.35, 0.000, 0.000, 0.000, 15:42:23.416, 1587847343416
69, 62.35, -329.13, -26.16, 14.20, 0.000, 0.000, 0.000, 15:42:23.433, 1587847343433
70, 240.20, -132.75, 225.83, 67.52, 0.000, 0.000, 0.000, 15:42:23.433, 1587847343433
71, 76.76, -271.72, 60.13, -19.94, 0.000, 0.000, 0.000, 15:42:23.436, 1587847343436
72, -10.07, -357.19, -40.42, -23.08, 0.000, 0.000, 0.000, 15:42:23.436, 1587847343436
73, 191.80, -185.50, 173.96, 64.08, 0.000, 0.000, 0.000, 15:42:23.446, 1587847343446
74, 146.52, -210.79, 21.84, 12.27, 0.000, 0.000, 0.000, 15:42:23.446, 1587847343446
75, 54.73, -346.94, -67.55, -39.40, 0.000, 0.000, 0.000, 15:42:23.463, 1587847343463
76, 166.84, -201.59, 66.80, 52.48, 0.000, 0.000, 0.000, 15:42:23.463, 1587847343463
77, 11.84, -222.31, 63.11, 47.66, 0.000, 0.000, 0.000, 15:42:23.466, 1587847343466
78, -64.05, -307.05, 160.45, -45.40, 0.000, 0.000, 0.000, 15:42:23.466, 1587847343466
79, 172.37, -267.52, 143.29, 18.66, 0.000, 0.000, 0.000, 15:42:23.478, 1587847343478
80, 293.23, -152.90, 195.53, 68.01, 0.000, 0.000, 0.000, 15:42:23.478, 1587847343478
81, 92.67, -372.44, -16.23, -20.20, 0.000, 0.000, 0.000, 15:42:23.492, 1587847343492
82, 40.09, -369.03, 153.26, -23.03, 0.000, 0.000, 0.000, 15:42:23.492, 1587847343492
83, 208.04, -214.95, 198.89, 74.17, 0.000, 0.000, 0.000, 15:42:23.494, 1587847343494
84, 253.64, -225.74, 160.94, 15.58, 0.000, 0.000, 0.000, 15:42:23.494, 1587847343494
85, -161.62, -395.25, 156.92, -40.45, 0.000, 0.000, 0.000, 15:42:23.508, 1587847343508
86, -31.63, -285.69, 86.14, 51.12, 0.000, 0.000, 0.000, 15:42:23.508, 1587847343508
87, 429.66, -148.09, 315.08, 44.95, 0.000, 0.000, 0.000, 15:42:23.523, 1587847343523
88, 173.11, -306.02, -53.25, -42.95, 0.000, 0.000, 0.000, 15:42:23.523, 1587847343523
89, 108.56, -319.50, -70.59, 10.81, 0.000, 0.000, 0.000, 15:42:23.524, 1587847343524
90, 279.84, -76.42, 431.46, 73.74, 0.000, 0.000, 0.000, 15:42:23.524, 1587847343524
91, -5.09, -302.79, 110.81, -17.47, 0.000, 0.000, 0.000, 15:42:23.538, 1587847343538
92, -122.22, -381.05, -2.56, -24.94, 0.000, 0.000, 0.000, 15:42:23.538, 1587847343538
93, 277.10, -145.83, 43.15, 68.38, 0.000, 0.000, 0.000, 15:42:23.566, 1587847343566
94, 246.55, -118.46, 386.00, 15.25, 0.000, 0.000, 0.000, 15:42:23.566, 1587847343566
95, -8.50, -338.80, -22.19, -36.46, 0.000, 0.000, 0.000, 15:42:23.583, 1587847343583
96, 140.15, -153.18, 200.00, 54.47, 0.000, 0.000, 0.000, 15:42:23.583, 1587847343583
97, 89.39, -75.37, 294.93, 46.72, 0.000, 0.000, 0.000, 15:42:23.583, 1587847343583
98, -164.24, -329.68, -101.15, -38.88, 0.000, 0.000, 0.000, 15:42:23.583, 1587847343583
99, 186.96, -237.62, 79.87, 15.40, 0.000, 0.000, 0.000, 15:42:23.584, 1587847343584
100, 331.45, 56.77, 417.91, 71.55, 0.000, 0.000, 0.000, 15:42:23.584, 1587847343584
101, -36.68, -282.21, 45.94, -18.37, 0.000, 0.000, 0.000, 15:42:23.585, 1587847343585
102, -37.95, -303.65, 17.77, -22.92, 0.000, 0.000, 0.000, 15:42:23.585, 1587847343585
103, 214.90, 42.28, 221.79, 72.71, 0.000, 0.000, 0.000, 15:42:23.596, 1587847343596
104, 94.71, -156.07, 0.12, 14.15, 0.000, 0.000, 0.000, 15:42:23.596, 1587847343596
105, 34.69, -148.71, 218.59, -43.74, 0.000, 0.000, 0.000, 15:42:23.612, 1587847343612
106, 153.29, -86.06, 136.52, 50.81, 0.000, 0.000, 0.000, 15:42:23.612, 1587847343612
107, 106.85, 25.71, 350.70, 50.60, 0.000, 0.000, 0.000, 15:42:23.613, 1587847343613
108, -15.22, -172.76, -3.61, -38.78, 0.000, 0.000, 0.000, 15:42:23.613, 1587847343613
109, -80.43, -115.85, 78.28, 17.72, 0.000, 0.000, 0.000, 15:42:23.627, 1587847343627
110, 256.43, 61.90, 98.22, 68.45, 0.000, 0.000, 0.000, 15:42:23.627, 1587847343627
111, 0.47, -70.73, 99.47, -19.25, 0.000, 0.000, 0.000, 15:42:23.643, 1587847343643
112, -66.72, -153.48, -25.54, -19.54, 0.000, 0.000, 0.000, 15:42:23.643, 1587847343643
113, 46.01, 76.63, 252.80, 71.15, 0.000, 0.000, 0.000, 15:42:23.647, 1587847343647
114, 228.05, 6.40, 170.60, 17.39, 0.000, 0.000, 0.000, 15:42:23.647, 1587847343647
115, -56.87, -106.27, 73.75, -39.79, 0.000, 0.000, 0.000, 15:42:23.656, 1587847343656
116, -55.77, -3.85, -124.96, 52.04, 0.000, 0.000, 0.000, 15:42:23.656, 1587847343656
117, 150.69, 114.14, 364.71, 51.27, 0.000, 0.000, 0.000, 15:42:23.672, 1587847343672
118, 96.53, -10.45, 177.43, -34.24, 0.000, 0.000, 0.000, 15:42:23.672, 1587847343672
119, -76.59, -88.31, -12.19, 13.75, 0.000, 0.000, 0.000, 15:42:23.676, 1587847343676
120, 136.03, 146.42, 289.28, 69.55, 0.000, 0.000, 0.000, 15:42:23.676, 1587847343676
121, -40.94, 11.15, 1.31, -21.04, 0.000, 0.000, 0.000, 15:42:23.687, 1587847343687
122, -180.62, -144.22, -150.50, -28.05, 0.000, 0.000, 0.000, 15:42:23.687, 1587847343687
123, 230.82, 155.33, 318.76, 72.89, 0.000, 0.000, 0.000, 15:42:23.705, 1587847343705
124, 78.33, 94.38, 189.17, 20.32, 0.000, 0.000, 0.000, 15:42:23.705, 1587847343705
125, -77.68, -164.96, -74.54, -40.70, 0.000, 0.000, 0.000, 15:42:23.707, 1587847343707
126, 73.04, 158.98, 204.30, 54.79, 0.000, 0.000, 0.000, 15:42:23.707, 1587847343707
127, 18.95, 123.03, 132.85, 53.38, 0.000, 0.000, 0.000, 15:42:23.716, 1587847343716
128, 11.30, 15.29, 110.87, -40.78, 0.000, 0.000, 0.000, 15:42:23.716, 1587847343716
129, -45.94, -82.43, 88.88, 15.26, 0.000, 0.000, 0.000, 15:42:23.732, 1587847343732
130, 99.79, 123.07, 290.53, 71.06, 0.000, 0.000, 0.000, 15:42:23.732, 1587847343732
131, 27.53, 44.79, 42.51, -14.82, 0.000, 0.000, 0.000, 15:42:23.734, 1587847343734
132, -250.63, -155.40, -135.55, -22.01, 0.000, 0.000, 0.000, 15:42:23.734, 1587847343734
133, 163.98, 143.02, 277.69, 70.17, 0.000, 0.000, 0.000, 15:42:23.746, 1587847343746
134, 80.31, 120.72, 227.17, 20.63, 0.000, 0.000, 0.000, 15:42:23.746, 1587847343746
135, -58.71, -96.36, -70.01, -40.72, 0.000, 0.000, 0.000, 15:42:23.762, 1587847343762
136, 15.50, 79.42, 162.65, 50.54, 0.000, 0.000, 0.000, 15:42:23.762, 1587847343762
137, 127.07, 191.80, 265.37, 49.28, 0.000, 0.000, 0.000, 15:42:23.769, 1587847343769
138, -73.07, -56.48, -32.23, -40.77, 0.000, 0.000, 0.000, 15:42:23.769, 1587847343769
139, -135.78, -23.80, 107.03, 13.20, 0.000, 0.000, 0.000, 15:42:23.777, 1587847343777
140, 202.01, 222.45, 325.17, 76.59, 0.000, 0.000, 0.000, 15:42:23.777, 1587847343777
141, 12.23, 36.01, 53.49, -17.88, 0.000, 0.000, 0.000, 15:42:23.791, 1587847343791
142, -104.36, -80.08, -73.76, -21.62, 0.000, 0.000, 0.000, 15:42:23.791, 1587847343791
143, 110.27, 156.89, 182.06, 71.67, 0.000, 0.000, 0.000, 15:42:23.807, 1587847343807
144, -61.82, 137.89, 311.14, 20.54, 0.000, 0.000, 0.000, 15:42:23.807, 1587847343807
145, -91.50, -84.01, 13.93, -41.01, 0.000, 0.000, 0.000, 15:42:23.809, 1587847343809
146, 103.29, 77.00, 87.83, 57.83, 0.000, 0.000, 0.000, 15:42:23.809, 1587847343809
147, 43.64, 158.00, 172.05, 51.65, 0.000, 0.000, 0.000, 15:42:23.822, 1587847343822
148, -39.24, -45.70, 8.65, -36.16, 0.000, 0.000, 0.000, 15:42:23.822, 1587847343822
149, 0.11, 47.55, 203.29, 16.29, 0.000, 0.000, 0.000, 15:42:23.822, 1587847343822
150, 145.26, 170.41, 285.29, 78.43, 0.000, 0.000, 0.000, 15:42:23.822, 1587847343822
151, -20.68, -14.96, -34.98, -20.60, 0.000, 0.000, 0.000, 15:42:23.836, 1587847343836
152, -125.94, -23.73, 98.38, -17.64, 0.000, 0.000, 0.000, 15:42:23.836, 1587847343836
153, 108.62, 147.67, 209.34, 71.63, 0.000, 0.000, 0.000, 15:42:23.852, 1587847343852
154, -81.93, 88.25, 197.49, 17.99, 0.000, 0.000, 0.000, 15:42:23.852, 1587847343852
155, -181.26, -98.40, -24.28, -42.11, 0.000, 0.000, 0.000, 15:42:23.854, 1587847343854
156, 186.23, 117.59, 247.87, 48.61, 0.000, 0.000, 0.000, 15:42:23.854, 1587847343854
157, 57.71, 139.80, 286.20, 51.06, 0.000, 0.000, 0.000, 15:42:23.866, 1587847343866
158, -36.97, -70.86, -42.05, -35.27, 0.000, 0.000, 0.000, 15:42:23.866, 1587847343866
159, -10.81, -5.46, 49.26, 16.92, 0.000, 0.000, 0.000, 15:42:23.881, 1587847343881
160, 81.41, 145.94, 105.21, 70.47, 0.000, 0.000, 0.000, 15:42:23.881, 1587847343881
161, -33.03, 53.47, 277.10, -13.85, 0.000, 0.000, 0.000, 15:42:23.882, 1587847343882
162, -138.80, -55.39, 19.33, -22.93, 0.000, 0.000, 0.000, 15:42:23.882, 1587847343882
163, 100.15, 111.89, 209.59, 71.48, 0.000, 0.000, 0.000, 15:42:23.896, 1587847343896
164, 138.75, 109.72, 234.36, 21.36, 0.000, 0.000, 0.000, 15:42:23.896, 1587847343896
165, -75.84, -57.07, -59.01, -46.65, 0.000, 0.000, 0.000, 15:42:23.912, 1587847343912
166, -21.91, 49.82, 227.20, 51.59, 0.000, 0.000, 0.000, 15:42:23.912, 1587847343912
167, 40.67, 150.44, 215.21, 51.25, 0.000, 0.000, 0.000, 15:42:23.913, 1587847343913
168, -79.85, -54.74, -60.48, -41.33, 0.000, 0.000, 0.000, 15:42:23.913, 1587847343913
169, -83.40, -40.58, 113.07, 15.58, 0.000, 0.000, 0.000, 15:42:23.927, 1587847343927
170, 152.68, 133.66, 232.32, 69.59, 0.000, 0.000, 0.000, 15:42:23.927, 1587847343927
171, 72.75, 89.23, 233.90, -15.56, 0.000, 0.000, 0.000, 15:42:23.944, 1587847343944
172, -112.81, -85.31, -1.77, -20.23, 0.000, 0.000, 0.000, 15:42:23.944, 1587847343944
173, 42.97, 74.19, 83.63, 72.44, 0.000, 0.000, 0.000, 15:42:23.946, 1587847343946
174, 92.24, 129.91, 242.70, 16.19, 0.000, 0.000, 0.000, 15:42:23.946, 1587847343946
175, -297.29, -103.99, -2.55, -41.95, 0.000, 0.000, 0.000, 15:42:23.956, 1587847343956
176, 100.30, 42.94, 218.74, 47.77, 0.000, 0.000, 0.000, 15:42:23.956, 1587847343956
177, 149.20, 117.08, 232.39, 52.43, 0.000, 0.000, 0.000, 15:42:23.976, 1587847343976
178, -38.10, -51.82, -64.02, -38.49, 0.000, 0.000, 0.000, 15:42:23.976, 1587847343976
179, -143.30, -13.85, 147.84, 9.18, 0.000, 0.000, 0.000, 15:42:23.984, 1587847343984
180, 136.67, 62.68, 260.35, 69.92, 0.000, 0.000, 0.000, 15:42:23.984, 1587847343984
181, 122.52, 67.42, 32.84, -16.42, 0.000, 0.000, 0.000, 15:42:23.987, 1587847343987
182, -303.44, -108.84, -13.24, -23.75, 0.000, 0.000, 0.000, 15:42:23.987, 1587847343987
183, 105.93, 89.11, 169.17, 70.70, 0.000, 0.000, 0.000, 15:42:24.007, 1587847344007
184, 125.26, 106.44, 354.96, 18.35, 0.000, 0.000, 0.000, 15:42:24.007, 1587847344007
185, -97.64, -112.34, -143.70, -41.65, 0.000, 0.000, 0.000, 15:42:24.012, 1587847344012
186, -94.36, 3.56, 233.37, 48.11, 0.000, 0.000, 0.000, 15:42:24.012, 1587847344012
187, 175.67, 187.61, 276.00, 53.17, 0.000, 0.000, 0.000, 15:42:24.016, 1587847344016
188, -19.01, -103.73, 26.10, -37.85, 0.000, 0.000, 0.000, 15:42:24.016, 1587847344016
189, -81.75, -33.32, 34.93, 12.00, 0.000, 0.000, 0.000, 15:42:24.032, 1587847344032
190, 244.31, 173.70, 205.68, 73.87, 0.000, 0.000, 0.000, 15:42:24.032, 1587847344032
191, -81.98, -10.99, 201.32, -14.90, 0.000, 0.000, 0.000, 15:42:24.032, 1587847344032
192, -228.60, -179.38, -63.24, -25.17, 0.000, 0.000, 0.000, 15:42:24.032, 1587847344032
193, 81.63, 159.38, 268.63, 71.51, 0.000, 0.000, 0.000, 15:42:24.046, 1587847344046
194, 184.97, 73.15, 157.29, 22.84, 0.000, 0.000, 0.000, 15:42:24.046, 1587847344046
195, -176.17, -130.28, 62.71, -43.08, 0.000, 0.000, 0.000, 15:42:24.062, 1587847344062
196, 85.84, 63.49, 3.33, 43.33, 0.000, 0.000, 0.000, 15:42:24.062, 1587847344062
197, 213.19, 141.92, 300.02, 53.15, 0.000, 0.000, 0.000, 15:42:24.063, 1587847344063
198, -161.54, -100.88, 57.64, -38.68, 0.000, 0.000, 0.000, 15:42:24.063, 1587847344063
199, -13.62, -79.34, -40.59, 9.75, 0.000, 0.000, 0.000, 15:42:24.077, 1587847344077
200, 35.51, 130.27, 306.30, 73.78, 0.000, 0.000, 0.000, 15:42:24.077, 1587847344077
0, -48.66, 38.10, 176.62, -16.33, 0.000, 0.000, 0.000, 15:42:24.079, 1587847344079
1, 78.51, -73.56, 23.67, -21.42, 0.000, 0.000, 0.000, 15:42:24.091, 1587847344091
2, 99.62, 88.72, 238.33, 71.98, 0.000, 0.000, 0.000, 15:42:24.091, 1587847344091
3, -84.56, 47.36, 102.48, 21.18, 0.000, 0.000, 0.000, 15:42:24.124, 1587847344124
4, -46.56, -74.15, -24.37, -41.69, 0.000, 0.000, 0.000, 15:42:24.124, 1587847344124
5, 24.23, -5.18, 130.05, 50.65, 0.000, 0.000, 0.000, 15:42:24.125, 1587847344125
6, 174.40, 109.49, 210.27, 51.77, 0.000, 0.000, 0.000, 15:42:24.125, 1587847344125
7, 8.95, -28.99, 129.48, -36.66, 0.000, 0.000, 0.000, 15:42:24.126, 1587847344126
8, -181.68, -126.08, 15.27, 6.53, 0.000, 0.000, 0.000, 15:42:24.126, 1587847344126
9, 173.92, 155.51, 331.06, 71.19, 0.000, 0.000, 0.000, 15:42:24.126, 1587847344126
10, 65.92, 5.95, 82.20, -11.26, 0.000, 0.000, 0.000, 15:42:24.126, 1587847344126
11, -349.48, -173.68, -217.33, -26.74, 0.000, 0.000, 0.000, 15:42:24.137, 1587847344137
12, 197.78, 132.58, 354.57, 72.52, 0.000, 0.000, 0.000, 15:42:24.137, 1587847344137
13, 168.24, 61.01, 130.78, 21.58, 0.000, 0.000, 0.000, 15:42:24.151, 1587847344151
14, -65.02, -170.49, -51.21, -41.77, 0.000, 0.000, 0.000, 15:42:24.151, 1587847344151
15, -3.62, 15.72, 282.27, 50.49, 0.000, 0.000, 0.000, 15:42:24.167, 1587847344167
16, 67.51, 112.18, 276.97, 58.60, 0.000, 0.000, 0.000, 15:42:24.167, 1587847344167
17, 69.65, -57.71, -136.17, -42.25, 0.000, 0.000, 0.000, 15:42:24.168, 1587847344168
18, -30.41, -70.57, 105.95, 9.17, 0.000, 0.000, 0.000, 15:42:24.168, 1587847344168
19, -83.81, 81.19, 268.39, 65.98, 0.000, 0.000, 0.000, 15:42:24.182, 1587847344182
20, 121.33, -16.60, 125.58, -17.13, 0.000, 0.000, 0.000, 15:42:24.182, 1587847344182
21, -46.94, -133.49, 86.40, -22.08, 0.000, 0.000, 0.000, 15:42:24.197, 1587847344197
22, 134.93, 74.16, 65.08, 71.02, 0.000, 0.000, 0.000, 15:42:24.197, 1587847344197
23, 67.67, 15.28, 173.76, 20.61, 0.000, 0.000, 0.000, 15:42:24.198, 1587847344198
24, -60.27, -120.76, 117.89, -41.28, 0.000, 0.000, 0.000, 15:42:24.198, 1587847344198
25, 66.70, 7.20, 49.02, 49.93, 0.000, 0.000, 0.000, 15:42:24.211, 1587847344211
26, 6.28, 75.77, 70.57, 51.15, 0.000, 0.000, 0.000, 15:42:24.211, 1587847344211
27, -11.13, -92.17, 251.86, -38.00, 0.000, 0.000, 0.000, 15:42:24.227, 1587847344227
28, 58.86, -67.96, 64.58, 10.98, 0.000, 0.000, 0.000, 15:42:24.227, 1587847344227
29, 65.26, 50.80, 66.27, 73.33, 0.000, 0.000, 0.000, 15:42:24.228, 1587847344228
30, 31.22, -17.95, 191.10, -14.43, 0.000, 0.000, 0.000, 15:42:24.228, 1587847344228
31, -107.60, -169.90, 0.52, -21.91, 0.000, 0.000, 0.000, 15:42:24.244, 1587847344244
32, 254.14, 73.37, 263.66, 67.74, 0.000, 0.000, 0.000, 15:42:24.244, 1587847344244
33, 72.43, 11.29, 134.68, 26.73, 0.000, 0.000, 0.000, 15:42:24.257, 1587847344257
34, -159.79, -168.19, -17.50, -36.89, 0.000, 0.000, 0.000, 15:42:24.257, 1587847344257
35, -10.30, -55.97, 123.17, 46.57, 0.000, 0.000, 0.000, 15:42:24.257, 1587847344257
36, 193.95, 102.53, 346.29, 53.65, 0.000, 0.000, 0.000, 15:42:24.257, 1587847344257
37, 10.05, -117.50, -126.84, -39.34, 0.000, 0.000, 0.000, 15:42:24.272, 1587847344272
38, 2.45, -116.76, 134.21, 11.48, 0.000, 0.000, 0.000, 15:42:24.272, 1587847344272
39, 180.54, 51.64, 133.56, 78.74, 0.000, 0.000, 0.000, 15:42:24.288, 1587847344288
40, -11.03, -30.58, 104.54, -11.33, 0.000, 0.000, 0.000, 15:42:24.288, 1587847344288
41, -213.85, -202.96, 97.66, -25.71, 0.000, 0.000, 0.000, 15:42:24.289, 1587847344289
42, 217.58, 63.31, 184.08, 72.02, 0.000, 0.000, 0.000, 15:42:24.289, 1587847344289
43, 172.84, 10.31, 227.44, 27.84, 0.000, 0.000, 0.000, 15:42:24.301, 1587847344301
44, -109.94, -209.03, -117.62, -45.36, 0.000, 0.000, 0.000, 15:42:24.301, 1587847344301
45, -30.55, -90.12, 119.53, 49.74, 0.000, 0.000, 0.000, 15:42:24.317, 1587847344317
46, 281.99, 104.09, 329.62, 50.84, 0.000, 0.000, 0.000, 15:42:24.317, 1587847344317
47, -99.16, -202.88, 16.49, -36.60, 0.000, 0.000, 0.000, 15:42:24.319, 1587847344319
48, 29.47, -105.32, -245.42, 10.00, 0.000, 0.000, 0.000, 15:42:24.319, 1587847344319
49, 107.40, 111.25, 512.68, 74.11, 0.000, 0.000, 0.000, 15:42:24.347, 1587847344347
50, 34.66, -99.04, 189.37, -16.16, 0.000, 0.000, 0.000, 15:42:24.347, 1587847344347
51, -18.39, -240.76, -93.78, -26.38, 0.000, 0.000, 0.000, 15:42:24.348, 1587847344348
52, 147.69, 27.95, 268.27, 66.05, 0.000, 0.000, 0.000, 15:42:24.348, 1587847344348
53, 104.26, -24.46, 43.99, 20.29, 0.000, 0.000, 0.000, 15:42:24.350, 1587847344350
54, -156.38, -231.12, -42.47, -43.75, 0.000, 0.000, 0.000, 15:42:24.350, 1587847344350
55, 210.40, -11.26, 181.39, 49.36, 0.000, 0.000, 0.000, 15:42:24.361, 1587847344361
56, 181.73, 42.44, 315.92, 52.71, 0.000, 0.000, 0.000, 15:42:24.361, 1587847344361
57, -28.66, -178.79, 62.59, -39.55, 0.000, 0.000, 0.000, 15:42:24.380, 1587847344380
58, -38.53, -204.92, -36.19, 9.32, 0.000, 0.000, 0.000, 15:42:24.380, 1587847344380
59, 159.64, 50.06, 143.06, 76.96, 0.000, 0.000, 0.000, 15:42:24.383, 1587847344383
60, -7.40, -87.15, 224.50, -6.16, 0.000, 0.000, 0.000, 15:42:24.383, 1587847344383
61, 18.39, -185.37, -15.52, -25.10, 0.000, 0.000, 0.000, 15:42:24.391, 1587847344391
62, -14.11, -95.31, 61.98, 71.01, 0.000, 0.000, 0.000, 15:42:24.391, 1587847344391
63, 273.67, 33.11, 408.18, 26.73, 0.000, 0.000, 0.000, 15:42:24.407, 1587847344407
64, -30.39, -234.58, 7.26, -45.04, 0.000, 0.000, 0.000, 15:42:24.407, 1587847344407
65, 4.62, -129.06, 47.67, 47.90, 0.000, 0.000, 0.000, 15:42:24.409, 1587847344409
66, 263.03, 35.69, 281.37, 58.52, 0.000, 0.000, 0.000, 15:42:24.410, 1587847344410
67, -115.56, -216.53, -128.61, -36.17, 0.000, 0.000, 0.000, 15:42:24.426, 1587847344426
68, -110.19, -159.41, 180.83, 6.10, 0.000, 0.000, 0.000, 15:42:24.426, 1587847344426
69, 319.54, 10.93, 241.78, 76.06, 0.000, 0.000, 0.000, 15:42:24.443, 1587847344443
70, 76.53, -115.99, 25.85, -10.99, 0.000, 0.000, 0.000, 15:42:24.443, 1587847344443
71, -104.55, -283.83, -99.82, -23.83, 0.000, 0.000, 0.000, 15:42:24.453, 1587847344453
72, 177.78, 5.14, 400.29, 67.28, 0.000, 0.000, 0.000, 15:42:24.453, 1587847344453
73, 150.71, -68.63, 121.04, 24.13, 0.000, 0.000, 0.000, 15:42:24.462, 1587847344462
74, -155.78, -298.57, -29.16, -43.17, 0.000, 0.000, 0.000, 15:42:24.462, 1587847344462
75, 171.73, -77.89, 210.34, 44.74, 0.000, 0.000, 0.000, 15:42:24.467, 1587847344467
76, 233.00, 21.41, 148.52, 53.40, 0.000, 0.000, 0.000, 15:42:24.467, 1587847344467
77, -69.41, -223.47, 50.42, -37.71, 0.000, 0.000, 0.000, 15:42:24.468, 1587847344468
78, 77.19, -204.78, 137.07, 10.78, 0.000, 0.000, 0.000, 15:42:24.468, 1587847344468
79, 144.00, -40.93, 247.20, 74.48, 0.000, 0.000, 0.000, 15:42:24.481, 1587847344481
80, -55.22, -167.18, -27.99, -14.80, 0.000, 0.000, 0.000, 15:42:24.481, 1587847344481
81, 8.18, -249.68, 2.35, -27.13, 0.000, 0.000, 0.000, 15:42:24.497, 1587847344497
82, 235.16, -31.41, 287.46, 70.49, 0.000, 0.000, 0.000, 15:42:24.497, 1587847344497
83, 200.43, -79.79, 234.07, 23.96, 0.000, 0.000, 0.000, 15:42:24.499, 1587847344499
84, -94.44, -303.64, -16.91, -45.51, 0.000, 0.000, 0.000, 15:42:24.499, 1587847344499
85, -14.81, -150.64, 83.30, 42.40, 0.000, 0.000, 0.000, 15:42:24.511, 1587847344511
86, 302.74, -10.75, 213.60, 53.56, 0.000, 0.000, 0.000, 15:42:24.511, 1587847344511
87, -1.14, -228.51, 54.68, -37.95, 0.000, 0.000, 0.000, 15:42:24.527, 1587847344527
88, -137.76, -347.07, -83.89, 9.60, 0.000, 0.000, 0.000, 15:42:24.527, 1587847344527
89, 350.42, 7.64, 310.56, 73.63, 0.000, 0.000, 0.000, 15:42:24.528, 1587847344528
90, 32.89, -133.25, 258.55, -10.26, 0.000, 0.000, 0.000, 15:42:24.528, 1587847344528
91, -64.96, -338.15, -9.63, -25.54, 0.000, 0.000, 0.000, 15:42:24.542, 1587847344542
92, 259.04, -47.72, 210.31, 69.23, 0.000, 0.000, 0.000, 15:42:24.542, 1587847344542
93, 186.66, -71.60, 212.26, 20.68, 0.000, 0.000, 0.000, 15:42:24.557, 1587847344557
94, -204.09, -330.48, 23.58, -44.61, 0.000, 0.000, 0.000, 15:42:24.557, 1587847344557
95, 177.99, -213.43, -38.57, 45.64, 0.000, 0.000, 0.000, 15:42:24.558, 1587847344558
96, 289.00, -61.66, 292.67, 56.94, 0.000, 0.000, 0.000, 15:42:24.558, 1587847344558
97, -44.44, -219.01, 164.88, -35.40, 0.000, 0.000, 0.000, 15:42:24.571, 1587847344571
98, -104.35, -289.59, 1.02, 5.88, 0.000, 0.000, 0.000, 15:42:24.571, 1587847344571
99, 307.45, -52.06, 320.84, 73.20, 0.000, 0.000, 0.000, 15:42:24.587, 1587847344587
100, 66.88, -184.70, 38.87, -9.36, 0.000, 0.000, 0.000, 15:42:24.587, 1587847344587
101, 31.15, -294.50, -147.67, -27.82, 0.000, 0.000, 0.000, 15:42:24.588, 1587847344588
102, 204.65, -126.62, 349.76, 70.38, 0.000, 0.000, 0.000, 15:42:24.588, 1587847344588
103, 184.42, -118.27, 174.35, 24.44, 0.000, 0.000, 0.000, 15:42:24.601, 1587847344601
104, -20.97, -287.91, 116.29, -42.07, 0.000, 0.000, 0.000, 15:42:24.601, 1587847344601
105, 102.48, -197.70, 147.48, 45.21, 0.000, 0.000, 0.000, 15:42:24.617, 1587847344617
106, 186.02, -71.80, 154.23, 57.97, 0.000, 0.000, 0.000, 15:42:24.617, 1587847344617
107, 13.03, -273.20, -29.31, -34.97, 0.000, 0.000, 0.000, 15:42:24.618, 1587847344618
108, -48.17, -239.31, 157.47, 12.41, 0.000, 0.000, 0.000, 15:42:24.618, 1587847344618
109, 317.89, -82.91, 308.92, 76.65, 0.000, 0.000, 0.000, 15:42:24.631, 1587847344631
110, 8.37, -221.26, 18.00, -10.69, 0.000, 0.000, 0.000, 15:42:24.631, 1587847344631
111, -32.97, -345.90, -92.64, -23.77, 0.000, 0.000, 0.000, 15:42:24.647, 1587847344647
112, 313.72, -79.06, 318.22, 67.34, 0.000, 0.000, 0.000, 15:42:24.647, 1587847344647
113, 123.50, -122.48, 239.19, 26.92, 0.000, 0.000, 0.000, 15:42:24.647, 1587847344647
114, -60.54, -352.71, -98.10, -46.29, 0.000, 0.000, 0.000, 15:42:24.647, 1587847344647
115, 198.55, -164.08, 191.31, 42.60, 0.000, 0.000, 0.000, 15:42:24.661, 1587847344661
116, 219.89, -91.28, 265.85, 58.37, 0.000, 0.000, 0.000, 15:42:24.661, 1587847344661
117, -147.77, -296.31, 44.53, -35.41, 0.000, 0.000, 0.000, 15:42:24.677, 1587847344677
118, 106.43, -275.80, -12.33, 3.06, 0.000, 0.000, 0.000, 15:42:24.677, 1587847344677
119, 366.37, -69.46, 202.16, 71.29, 0.000, 0.000, 0.000, 15:42:24.677, 1587847344677
120, 49.73, -203.11, 212.93, -9.21, 0.000, 0.000, 0.000, 15:42:24.677, 1587847344677
121, -35.96, -371.76, 33.36, -20.41, 0.000, 0.000, 0.000, 15:42:24.691, 1587847344691
122, 264.50, -131.15, 213.03, 72.42, 0.000, 0.000, 0.000, 15:42:24.691, 1587847344691
123, 162.66, -156.54, 169.35, 29.12, 0.000, 0.000, 0.000, 15:42:24.708, 1587847344708
124, -33.98, -367.01, 13.21, -47.18, 0.000, 0.000, 0.000, 15:42:24.708, 1587847344708
125, 35.65, -201.03, 129.77, 44.32, 0.000, 0.000, 0.000, 15:42:24.710, 1587847344710
126, 252.82, -77.54, 291.61, 59.94, 0.000, 0.000, 0.000, 15:42:24.710, 1587847344710
127, 22.57, -320.63, 48.00, -38.00, 0.000, 0.000, 0.000, 15:42:24.721, 1587847344721
128, 76.78, -318.64, 18.64, 3.50, 0.000, 0.000, 0.000, 15:42:24.721, 1587847344721
129, 328.30, -90.36, 191.83, 75.31, 0.000, 0.000, 0.000, 15:42:24.737, 1587847344737
130, 66.51, -225.17, 68.84, -14.74, 0.000, 0.000, 0.000, 15:42:24.737, 1587847344737
131, 2.06, -363.92, -16.13, -28.91, 0.000, 0.000, 0.000, 15:42:24.738, 1587847344738
132, 148.17, -204.15, 324.15, 71.38, 0.000, 0.000, 0.000, 15:42:24.738, 1587847344738
133, 239.37, -140.04, 261.65, 25.95, 0.000, 0.000, 0.000, 15:42:24.752, 1587847344752
134, -42.28, -353.76, -2.54, -40.10, 0.000, 0.000, 0.000, 15:42:24.752, 1587847344752
135, 85.36, -215.08, 1.86, 41.19, 0.000, 0.000, 0.000, 15:42:24.767, 1587847344767
136, 355.24, -119.49, 358.52, 56.22, 0.000, 0.000, 0.000, 15:42:24.767, 1587847344767
137, 60.42, -342.83, -54.82, -30.63, 0.000, 0.000, 0.000, 15:42:24.768, 1587847344768
138, 44.33, -330.19, 64.68, 6.01, 0.000, 0.000, 0.000, 15:42:24.768, 1587847344768
139, 287.62, -88.80, 342.71, 76.56, 0.000, 0.000, 0.000, 15:42:24.781, 1587847344781
140, -7.17, -260.24, 151.01, -11.80, 0.000, 0.000, 0.000, 15:42:24.781, 1587847344781
141, 33.97, -384.23, -50.14, -29.37, 0.000, 0.000, 0.000, 15:42:24.796, 1587847344796
142, 218.27, -181.85, 238.23, 70.67, 0.000, 0.000, 0.000, 15:42:24.796, 1587847344796
143, 228.35, -193.95, 174.55, 22.33, 0.000, 0.000, 0.000, 15:42:24.797, 1587847344797
144, 23.72, -362.49, 48.68, -42.99, 0.000, 0.000, 0.000, 15:42:24.797, 1587847344797
145, 160.12, -255.84, 96.58, 43.67, 0.000, 0.000, 0.000, 15:42:24.811, 1587847344811
146, 245.87, -136.37, 263.31, 55.70, 0.000, 0.000, 0.000, 15:42:24.811, 1587847344811
147, 71.16, -318.03, 86.72, -33.85, 0.000, 0.000, 0.000, 15:42:24.826, 1587847344826
148, 25.10, -364.40, -57.36, 4.46, 0.000, 0.000, 0.000, 15:42:24.827, 1587847344827
149, 261.79, -130.88, 372.58, 70.89, 0.000, 0.000, 0.000, 15:42:24.828, 1587847344828
150, 46.92, -252.44, 64.57, -8.35, 0.000, 0.000, 0.000, 15:42:24.828, 1587847344828
151, 13.19, -394.44, 17.02, -27.36, 0.000, 0.000, 0.000, 15:42:24.842, 1587847344842
152, 202.55, -169.45, 332.42, 64.55, 0.000, 0.000, 0.000, 15:42:24.842, 1587847344842
153, 275.48, -195.74, 169.76, 26.99, 0.000, 0.000, 0.000, 15:42:24.856, 1587847344856
154, 15.90, -410.49, -19.31, -38.98, 0.000, 0.000, 0.000, 15:42:24.856, 1587847344856
155, 126.51, -272.42, 88.59, 45.64, 0.000, 0.000, 0.000, 15:42:24.857, 1587847344857
156, 349.59, -115.16, 264.82, 59.13, 0.000, 0.000, 0.000, 15:42:24.857, 1587847344857
157, -1.07, -381.89, 70.49, -37.91, 0.000, 0.000, 0.000, 15:42:24.871, 1587847344871
158, 11.20, -359.33, 14.72, 2.77, 0.000, 0.000, 0.000, 15:42:24.871, 1587847344871
159, 268.53, -128.92, 328.43, 72.92, 0.000, 0.000, 0.000, 15:42:24.887, 1587847344887
160, 197.21, -286.34, 108.62, -14.25, 0.000, 0.000, 0.000, 15:42:24.887, 1587847344887
161, -28.34, -393.79, 81.87, -28.00, 0.000, 0.000, 0.000, 15:42:24.888, 1587847344888
162, 258.43, -223.64, 209.84, 69.65, 0.000, 0.000, 0.000, 15:42:24.888, 1587847344888
163, 226.78, -214.78, 147.35, 25.50, 0.000, 0.000, 0.000, 15:42:24.901, 1587847344901
164, -2.00, -399.50, -25.94, -46.18, 0.000, 0.000, 0.000, 15:42:24.901, 1587847344901
165, 100.22, -282.39, 199.62, 43.08, 0.000, 0.000, 0.000, 15:42:24.917, 1587847344917
166, 297.06, -157.90, 246.46, 58.82, 0.000, 0.000, 0.000, 15:42:24.917, 1587847344917
167, -5.04, -378.64, 81.19, -39.53, 0.000, 0.000, 0.000, 15:42:24.919, 1587847344919
168, 70.13, -396.75, 16.75, 4.94, 0.000, 0.000, 0.000, 15:42:24.919, 1587847344919
169, 322.19, -158.01, 166.60, 80.91, 0.000, 0.000, 0.000, 15:42:24.937, 1587847344937
170, 74.88, -300.04, 237.10, -11.42, 0.000, 0.000, 0.000, 15:42:24.937, 1587847344937
171, 107.95, -389.90, 52.77, -20.45, 0.000, 0.000, 0.000, 15:42:24.948, 1587847344948
172, 177.94, -227.07, 143.14, 67.17, 0.000, 0.000, 0.000, 15:42:24.948, 1587847344948
173, 62.62, -238.49, 235.75, 23.68, 0.000, 0.000, 0.000, 15:42:24.950, 1587847344950
174, 123.30, -386.59, -30.58, -44.36, 0.000, 0.000, 0.000, 15:42:24.950, 1587847344950
175, 239.62, -279.19, 127.59, 39.76, 0.000, 0.000, 0.000, 15:42:24.962, 1587847344962
176, 211.48, -188.30, 322.21, 60.17, 0.000, 0.000, 0.000, 15:42:24.962, 1587847344962
177, 18.35, -405.99, 31.37, -34.07, 0.000, 0.000, 0.000, 15:42:24.977, 1587847344977
178, 133.96, -377.38, -43.65, 7.37, 0.000, 0.000, 0.000, 15:42:24.977, 1587847344977
179, 252.79, -146.47, 393.76, 74.59, 0.000, 0.000, 0.000, 15:42:24.980, 1587847344980
180, 130.80, -298.94, 173.25, -6.06, 0.000, 0.000, 0.000, 15:42:24.980, 1587847344980
181, 40.13, -431.58, -89.43, -25.96, 0.000, 0.000, 0.000, 15:42:24.991, 1587847344991
182, 241.24, -225.27, 267.88, 65.67, 0.000, 0.000, 0.000, 15:42:24.991, 1587847344991
183, 222.48, -237.25, 66.53, 25.92, 0.000, 0.000, 0.000, 15:42:25.009, 1587847345009
184, 8.77, -402.58, -40.49, -41.10, 0.000, 0.000, 0.000, 15:42:25.009, 1587847345009
185, 224.07, -274.27, 299.46, 40.63, 0.000, 0.000, 0.000, 15:42:25.010, 1587847345010
186, 133.09, -210.00, 217.80, 57.85, 0.000, 0.000, 0.000, 15:42:25.010, 1587847345010
187, 96.28, -395.68, -0.20, -35.51, 0.000, 0.000, 0.000, 15:42:25.021, 1587847345021
188, 31.67, -348.76, 134.40, 1.01, 0.000, 0.000, 0.000, 15:42:25.021, 1587847345021
189, 326.30, -183.90, 312.30, 75.40, 0.000, 0.000, 0.000, 15:42:25.037, 1587847345037
190, 229.66, -306.38, 2.02, -6.21, 0.000, 0.000, 0.000, 15:42:25.037, 1587847345037
191, -49.25, -477.22, 24.08, -27.64, 0.000, 0.000, 0.000, 15:42:25.038, 1587847345038
192, 224.97, -214.03, 259.80, 68.92, 0.000, 0.000, 0.000, 15:42:25.038, 1587847345038
193, 281.45, -210.15, 230.80, 22.21, 0.000, 0.000, 0.000, 15:42:25.051, 1587847345051
194, 2.57, -440.50, -0.80, -41.33, 0.000, 0.000, 0.000, 15:42:25.051, 1587847345051
195, 97.76, -324.49, 72.54, 44.70, 0.000, 0.000, 0.000, 15:42:25.067, 1587847345067
196, 254.75, -166.88, 112.38, 59.40, 0.000, 0.000, 0.000, 15:42:25.067, 1587847345067
197, 93.04, -381.11, 110.56, -37.51, 0.000, 0.000, 0.000, 15:42:25.068, 1587847345068
198, 56.28, -384.82, 153.15, 4.12, 0.000, 0.000, 0.000, 15:42:25.068, 1587847345068
199, 330.16, -191.31, 269.07, 75.65, 0.000, 0.000, 0.000, 15:42:25.082, 1587847345082
200, 114.29, -304.73, 132.98, -10.06, 0.000, 0.000, 0.000, 15:42:25.082, 1587847345082
0, 14.31, -441.87, 2.13, -28.31, 0.000, 0.000, 0.000, 15:42:25.083, 1587847345083
1, 228.36, -245.43, 136.57, 75.13, 0.000, 0.000, 0.000, 15:42:25.096, 1587847345096
2, 230.34, -210.67, 232.12, 26.73, 0.000, 0.000, 0.000, 15:42:25.096, 1587847345096
3, 78.46, -449.39, 46.29, -46.27, 0.000, 0.000, 0.000, 15:42:25.112, 1587847345112
4, 144.69, -329.14, 96.06, 40.48, 0.000, 0.000, 0.000, 15:42:25.112, 1587847345112
5, 274.05, -185.25, 201.51, 58.87, 0.000, 0.000, 0.000, 15:42:25.113, 1587847345113
6, -24.04, -403.78, 76.51, -36.11, 0.000, 0.000, 0.000, 15:42:25.113, 1587847345113
7, -1.19, -399.12, 37.89, -0.26, 0.000, 0.000, 0.000, 15:42:25.126, 1587847345126
8, 393.48, -139.84, 259.92, 72.15, 0.000, 0.000, 0.000, 15:42:25.126, 1587847345126
9, 225.21, -302.38, 166.30, -13.66, 0.000, 0.000, 0.000, 15:42:25.145, 1587847345145
10, 30.42, -459.27, -114.68, -27.40, 0.000, 0.000, 0.000, 15:42:25.145, 1587847345145
11, 215.62, -239.84, 233.58, 71.88, 0.000, 0.000, 0.000, 15:42:25.147, 1587847345147
12, 191.03, -223.51, 267.70, 30.36, 0.000, 0.000, 0.000, 15:42:25.147, 1587847345147
13, 58.33, -444.95, -57.61, -40.02, 0.000, 0.000, 0.000, 15:42:25.156, 1587847345156
14, 135.18, -319.48, 145.67, 37.37, 0.000, 0.000, 0.000, 15:42:25.156, 1587847345156
15, 317.53, -209.88, 264.23, 57.54, 0.000, 0.000, 0.000, 15:42:25.173, 1587847345173
16, 104.96, -353.36, 92.29, -32.97, 0.000, 0.000, 0.000, 15:42:25.173, 1587847345173
17, 94.84, -372.77, 70.67, 3.76, 0.000, 0.000, 0.000, 15:42:25.177, 1587847345177
18, 191.09, -211.69, 256.80, 70.67, 0.000, 0.000, 0.000, 15:42:25.177, 1587847345177
19, 120.58, -312.28, 39.15, -8.54, 0.000, 0.000, 0.000, 15:42:25.193, 1587847345193
20, 107.56, -433.20, -46.55, -29.69, 0.000, 0.000, 0.000, 15:42:25.193, 1587847345193
21, 259.87, -269.30, 191.98, 69.16, 0.000, 0.000, 0.000, 15:42:25.204, 1587847345204
22, 148.85, -233.40, 147.40, 24.81, 0.000, 0.000, 0.000, 15:42:25.204, 1587847345204
23, 88.49, -392.32, 130.95, -45.17, 0.000, 0.000, 0.000, 15:42:25.206, 1587847345206
24, 137.89, -332.26, 158.48, 42.32, 0.000, 0.000, 0.000, 15:42:25.206, 1587847345206
25, 231.18, -215.81, 235.77, 61.67, 0.000, 0.000, 0.000, 15:42:25.217, 1587847345217
26, 95.04, -381.54, 56.59, -33.62, 0.000, 0.000, 0.000, 15:42:25.217, 1587847345217
27, 141.34, -396.71, -39.77, 1.74, 0.000, 0.000, 0.000, 15:42:25.232, 1587847345232
28, 219.43, -216.08, 214.40, 73.45, 0.000, 0.000, 0.000, 15:42:25.232, 1587847345232
29, 90.41, -318.57, 203.56, -8.31, 0.000, 0.000, 0.000, 15:42:25.233, 1587847345233
30, 125.41, -394.67, 65.18, -30.14, 0.000, 0.000, 0.000, 15:42:25.233, 1587847345233
31, 255.12, -246.09, 227.23, 69.69, 0.000, 0.000, 0.000, 15:42:25.246, 1587847345246
32, 211.30, -260.00, 158.65, 29.18, 0.000, 0.000, 0.000, 15:42:25.246, 1587847345246
33, -79.41, -471.35, -117.24, -46.58, 0.000, 0.000, 0.000, 15:42:25.262, 1587847345262
34, 189.44, -298.66, 231.55, 36.05, 0.000, 0.000, 0.000, 15:42:25.262, 1587847345262
35, 351.84, -170.58, 244.65, 61.06, 0.000, 0.000, 0.000, 15:42:25.262, 1587847345262
36, 76.55, -399.10, 91.65, -40.98, 0.000, 0.000, 0.000, 15:42:25.262, 1587847345262
37, 8.74, -423.84, 34.29, 0.58, 0.000, 0.000, 0.000, 15:42:25.293, 1587847345293
38, 301.26, -193.93, 7.57, 71.77, 0.000, 0.000, 0.000, 15:42:25.293, 1587847345293
39, 131.78, -310.88, 280.82, -6.37, 0.000, 0.000, 0.000, 15:42:25.294, 1587847345294
40, 32.60, -438.76, 68.75, -30.64, 0.000, 0.000, 0.000, 15:42:25.294, 1587847345294
41, 258.51, -247.71, 239.60, 65.26, 0.000, 0.000, 0.000, 15:42:25.294, 1587847345294
42, 259.17, -249.47, 181.52, 28.76, 0.000, 0.000, 0.000, 15:42:25.294, 1587847345294
43, -1.66, -450.28, -60.79, -43.42, 0.000, 0.000, 0.000, 15:42:25.306, 1587847345306
44, 113.04, -346.43, 133.88, 40.53, 0.000, 0.000, 0.000, 15:42:25.306, 1587847345306
45, 181.55, -172.54, 190.72, 61.61, 0.000, 0.000, 0.000, 15:42:25.321, 1587847345321
46, 198.04, -342.85, 27.59, -34.64, 0.000, 0.000, 0.000, 15:42:25.321, 1587847345321
47, 114.98, -413.60, -33.67, 2.40, 0.000, 0.000, 0.000, 15:42:25.324, 1587847345324
48, 215.87, -217.74, 374.28, 72.31, 0.000, 0.000, 0.000, 15:42:25.324, 1587847345324
49, 137.66, -327.07, 108.89, -8.44, 0.000, 0.000, 0.000, 15:42:25.336, 1587847345336
50, 77.87, -436.03, 35.31, -31.55, 0.000, 0.000, 0.000, 15:42:25.336, 1587847345336
51, 193.07, -252.41, 189.58, 68.38, 0.000, 0.000, 0.000, 15:42:25.352, 1587847345352
52, 189.15, -269.79, 219.98, 29.48, 0.000, 0.000, 0.000, 15:42:25.352, 1587847345352
53, 83.51, -420.71, 52.19, -42.28, 0.000, 0.000, 0.000, 15:42:25.353, 1587847345353
54, 125.38, -307.31, 67.03, 42.52, 0.000, 0.000, 0.000, 15:42:25.353, 1587847345353
55, 215.02, -179.63, 258.67, 62.64, 0.000, 0.000, 0.000, 15:42:25.366, 1587847345366
56, 138.89, -390.83, 60.08, -34.51, 0.000, 0.000, 0.000, 15:42:25.366, 1587847345366
57, 5.67, -435.99, -102.59, 2.28, 0.000, 0.000, 0.000, 15:42:25.387, 1587847345387
58, 318.90, -162.41, 210.20, 71.55, 0.000, 0.000, 0.000, 15:42:25.387, 1587847345387
59, 196.19, -289.31, 240.82, -7.12, 0.000, 0.000, 0.000, 15:42:25.388, 1587847345388
60, 34.13, -461.00, -48.41, -35.29, 0.000, 0.000, 0.000, 15:42:25.388, 1587847345388
61, 225.31, -269.95, 226.84, 66.48, 0.000, 0.000, 0.000, 15:42:25.396, 1587847345396
62, 233.75, -207.50, 281.87, 29.17, 0.000, 0.000, 0.000, 15:42:25.396, 1587847345396
63, 49.67, -433.06, -9.42, -43.08, 0.000, 0.000, 0.000, 15:42:25.413, 1587847345413
64, 145.78, -337.97, 124.76, 41.78, 0.000, 0.000, 0.000, 15:42:25.413, 1587847345413
65, 252.65, -199.05, 250.58, 64.96, 0.000, 0.000, 0.000, 15:42:25.416, 1587847345416
66, 13.65, -394.03, 11.92, -37.11, 0.000, 0.000, 0.000, 15:42:25.416, 1587847345416
67, 123.65, -395.79, -5.90, 1.58, 0.000, 0.000, 0.000, 15:42:25.426, 1587847345426
68, 267.41, -172.55, 185.32, 75.77, 0.000, 0.000, 0.000, 15:42:25.426, 1587847345426
69, 192.32, -283.41, 264.17, -4.43, 0.000, 0.000, 0.000, 15:42:25.442, 1587847345442
70, 34.80, -454.98, -33.50, -28.49, 0.000, 0.000, 0.000, 15:42:25.442, 1587847345442
71, 233.72, -250.80, 200.72, 65.35, 0.000, 0.000, 0.000, 15:42:25.445, 1587847345445
72, 218.73, -244.05, 183.33, 31.53, 0.000, 0.000, 0.000, 15:42:25.445, 1587847345445
73, 1.15, -444.27, 13.12, -46.67, 0.000, 0.000, 0.000, 15:42:25.456, 1587847345456
74, 69.61, -356.06, 55.53, 38.90, 0.000, 0.000, 0.000, 15:42:25.456, 1587847345456
75, 117.07, -176.72, 238.37, 56.45, 0.000, 0.000, 0.000, 15:42:25.472, 1587847345472
76, 285.96, -336.16, 86.29, -32.67, 0.000, 0.000, 0.000, 15:42:25.472, 1587847345472
77, 133.60, -385.35, 45.60, 2.05, 0.000, 0.000, 0.000, 15:42:25.472, 1587847345472
78, 282.58, -201.76, 260.81, 76.67, 0.000, 0.000, 0.000, 15:42:25.472, 1587847345472
79, 155.52, -325.23, 13.38, -4.51, 0.000, 0.000, 0.000, 15:42:25.486, 1587847345486
80, -11.00, -437.21, -7.43, -33.92, 0.000, 0.000, 0.000, 15:42:25.486, 1587847345486
81, 243.27, -240.73, 241.66, 67.71, 0.000, 0.000, 0.000, 15:42:25.502, 1587847345502
82, 261.84, -211.32, 224.38, 32.99, 0.000, 0.000, 0.000, 15:42:25.502, 1587847345502
83, -58.15, -465.32, -121.55, -46.59, 0.000, 0.000, 0.000, 15:42:25.502, 1587847345502
84, 230.69, -309.60, 45.67, 34.32, 0.000, 0.000, 0.000, 15:42:25.502, 1587847345502
85, 245.96, -160.90, 324.62, 66.15, 0.000, 0.000, 0.000, 15:42:25.516, 1587847345516
86, 36.47, -410.93, -47.25, -35.93, 0.000, 0.000, 0.000, 15:42:25.516, 1587847345516
87, 107.29, -350.74, 119.58, 0.32, 0.000, 0.000, 0.000, 15:42:25.531, 1587847345531
88, 375.54, -165.69, 281.71, 74.46, 0.000, 0.000, 0.000, 15:42:25.531, 1587847345531
89, 207.76, -297.80, 9.50, -7.20, 0.000, 0.000, 0.000, 15:42:25.547, 1587847345547
90, 52.89, -419.63, 18.23, -34.02, 0.000, 0.000, 0.000, 15:42:25.547, 1587847345547
91, 232.61, -241.56, 185.62, 65.83, 0.000, 0.000, 0.000, 15:42:25.548, 1587847345548
92, 223.30, -231.54, 154.15, 30.15, 0.000, 0.000, 0.000, 15:42:25.548, 1587847345548
93, 69.31, -398.35, -52.53, -43.83, 0.000, 0.000, 0.000, 15:42:25.562, 1587847345562
94, 155.88, -327.85, 72.47, 37.40, 0.000, 0.000, 0.000, 15:42:25.562, 1587847345562
95, 357.08, -162.31, 147.77, 60.31, 0.000, 0.000, 0.000, 15:42:25.563, 1587847345563
96, 116.12, -353.33, 102.30, -36.18, 0.000, 0.000, 0.000, 15:42:25.563, 1587847345563
97, 69.20, -407.96, -1.80, -0.32, 0.000, 0.000, 0.000, 15:42:25.576, 1587847345576
98, 278.04, -197.39, 115.35, 70.60, 0.000, 0.000, 0.000, 15:42:25.576, 1587847345576
99, 190.95, -268.33, 167.84, -9.25, 0.000, 0.000, 0.000, 15:42:25.592, 1587847345592
100, 59.24, -449.23, -41.45, -31.32, 0.000, 0.000, 0.000, 15:42:25.592, 1587847345592
101, 242.92, -233.33, 158.17, 64.99, 0.000, 0.000, 0.000, 15:42:25.593, 1587847345593
102, 288.24, -199.28, 181.95, 32.08, 0.000, 0.000, 0.000, 15:42:25.593, 1587847345593
103, 41.80, -417.35, -93.31, -43.62, 0.000, 0.000, 0.000, 15:42:25.613, 1587847345613
104, 110.15, -295.97, 155.60, 37.72, 0.000, 0.000, 0.000, 15:42:25.613, 1587847345613
105, 345.96, -186.97, 187.72, 61.45, 0.000, 0.000, 0.000, 15:42:25.622, 1587847345622
106, 142.47, -385.64, 35.13, -37.00, 0.000, 0.000, 0.000, 15:42:25.622, 1587847345622
107, 78.60, -411.25, -104.76, -0.00, 0.000, 0.000, 0.000, 15:42:25.623, 1587847345623
108, 300.21, -178.87, 283.50, 73.09, 0.000, 0.000, 0.000, 15:42:25.623, 1587847345623
109, 208.22, -271.66, 157.06, -5.89, 0.000, 0.000, 0.000, 15:42:25.637, 1587847345637
110, 27.84, -454.84, -47.03, -27.31, 0.000, 0.000, 0.000, 15:42:25.637, 1587847345637
111, 212.93, -246.83, 122.48, 67.96, 0.000, 0.000, 0.000, 15:42:25.652, 1587847345652
112, 255.80, -246.51, 130.61, 35.64, 0.000, 0.000, 0.000, 15:42:25.652, 1587847345652
113, 59.53, -441.32, -139.47, -44.40, 0.000, 0.000, 0.000, 15:42:25.653, 1587847345653
114, 245.80, -264.90, 188.79, 38.40, 0.000, 0.000, 0.000, 15:42:25.653, 1587847345653
115, 26.33, -187.00, 298.98, 68.67, 0.000, 0.000, 0.000, 15:42:25.665, 1587847345665
116, 99.52, -366.28, -134.98, -32.34, 0.000, 0.000, 0.000, 15:42:25.665, 1587847345665
117, 275.00, -353.68, 156.20, -4.69, 0.000, 0.000, 0.000, 15:42:25.682, 1587847345682
118, 349.55, -193.76, 184.77, 78.23, 0.000, 0.000, 0.000, 15:42:25.682, 1587847345682
119, 207.85, -313.72, 106.85, -3.90, 0.000, 0.000, 0.000, 15:42:25.685, 1587847345685
120, -4.50, -451.68, -2.36, -31.20, 0.000, 0.000, 0.000, 15:42:25.685, 1587847345685
121, 132.61, -245.17, -35.06, 67.16, 0.000, 0.000, 0.000, 15:42:25.696, 1587847345696
122, 342.48, -192.17, 269.06, 37.08, 0.000, 0.000, 0.000, 15:42:25.696, 1587847345696
123, 84.05, -409.47, 62.65, -47.11, 0.000, 0.000, 0.000, 15:42:25.712, 1587847345712
124, 158.50, -329.56, 91.34, 34.24, 0.000, 0.000, 0.000, 15:42:25.712, 1587847345712
125, 307.37, -174.88, 233.26, 59.10, 0.000, 0.000, 0.000, 15:42:25.713, 1587847345713
126, -45.28, -398.08, -6.08, -36.13, 0.000, 0.000, 0.000, 15:42:25.713, 1587847345713
127, 54.40, -386.02, -59.50, -2.51, 0.000, 0.000, 0.000, 15:42:25.726, 1587847345726
128, 444.16, -148.08, 242.18, 74.28, 0.000, 0.000, 0.000, 15:42:25.726, 1587847345726
129, 223.29, -283.17, 168.11, -2.57, 0.000, 0.000, 0.000, 15:42:25.742, 1587847345742
130, 36.05, -446.68, -56.96, -34.75, 0.000, 0.000, 0.000, 15:42:25.742, 1587847345742
131, 239.64, -248.45, 131.76, 62.84, 0.000, 0.000, 0.000, 15:42:25.744, 1587847345744
132, 176.64, -249.58, 80.32, 32.15, 0.000, 0.000, 0.000, 15:42:25.744, 1587847345744
133, 66.95, -364.90, -7.69, -42.24, 0.000, 0.000, 0.000, 15:42:25.756, 1587847345756
134, 122.12, -307.46, 137.56, 37.49, 0.000, 0.000, 0.000, 15:42:25.756, 1587847345756
135, 339.44, -157.12, 167.09, 62.60, 0.000, 0.000, 0.000, 15:42:25.772, 1587847345772
136, 185.72, -342.60, 63.97, -36.16, 0.000, 0.000, 0.000, 15:42:25.772, 1587847345772
137, 66.55, -404.95, -14.69, -1.08, 0.000, 0.000, 0.000, 15:42:25.787, 1587847345787
138, 315.27, -169.20, 283.43, 75.24, 0.000, 0.000, 0.000, 15:42:25.787, 1587847345787
139, 129.71, -285.70, 108.40, -3.62, 0.000, 0.000, 0.000, 15:42:25.788, 1587847345788
140, -22.11, -466.20, -146.84, -29.77, 0.000, 0.000, 0.000, 15:42:25.788, 1587847345788
141, 327.02, -236.94, 213.92, 67.28, 0.000, 0.000, 0.000, 15:42:25.803, 1587847345803
142, 299.49, -157.32, 143.35, 35.70, 0.000, 0.000, 0.000, 15:42:25.803, 1587847345803
143, 56.65, -409.38, -8.67, -44.27, 0.000, 0.000, 0.000, 15:42:25.807, 1587847345807
144, 118.09, -327.04, 119.47, 29.54, 0.000, 0.000, 0.000, 15:42:25.807, 1587847345807
145, 246.87, -167.83, 230.51, 64.13, 0.000, 0.000, 0.000, 15:42:25.817, 1587847345817
146, 148.81, -346.32, 26.16, -37.49, 0.000, 0.000, 0.000, 15:42:25.817, 1587847345817
147, 39.66, -400.40, -7.51, -1.22, 0.000, 0.000, 0.000, 15:42:25.834, 1587847345834
148, 322.79, -201.25, 125.46, 70.54, 0.000, 0.000, 0.000, 15:42:25.834, 1587847345834
149, 209.39, -249.71, 157.49, -8.16, 0.000, 0.000, 0.000, 15:42:25.836, 1587847345836
150, 57.32, -422.29, -21.77, -32.59, 0.000, 0.000, 0.000, 15:42:25.836, 1587847345836
151, 234.60, -243.13, 42.36, 65.91, 0.000, 0.000, 0.000, 15:42:25.846, 1587847345846
152, 269.86, -182.91, 292.18, 37.04, 0.000, 0.000, 0.000, 15:42:25.846, 1587847345846
153, 53.62, -423.18, -33.54, -41.90, 0.000, 0.000, 0.000, 15:42:25.862, 1587847345862
154, 103.91, -324.16, 19.78, 37.68, 0.000, 0.000, 0.000, 15:42:25.862, 1587847345862
155, 285.50, -142.61, 306.60, 65.49, 0.000, 0.000, 0.000, 15:42:25.863, 1587847345863
156, 93.79, -362.62, 23.19, -33.87, 0.000, 0.000, 0.000, 15:42:25.863, 1587847345863
157, 102.85, -383.40, -50.26, -1.44, 0.000, 0.000, 0.000, 15:42:25.877, 1587847345877
158, 323.79, -172.83, 260.21, 70.97, 0.000, 0.000, 0.000, 15:42:25.877, 1587847345877
159, 125.02, -300.44, 99.52, -3.34, 0.000, 0.000, 0.000, 15:42:25.892, 1587847345892
160, 28.95, -435.73, -65.88, -32.67, 0.000, 0.000, 0.000, 15:42:25.892, 1587847345892
161, 282.49, -211.44, 149.59, 65.67, 0.000, 0.000, 0.000, 15:42:25.893, 1587847345893
162, 223.46, -202.20, 211.85, 36.55, 0.000, 0.000, 0.000, 15:42:25.893, 1587847345893
163, -56.47, -399.64, -73.92, -47.25, 0.000, 0.000, 0.000, 15:42:25.906, 1587847345906
164, 222.82, -290.48, 133.85, 34.75, 0.000, 0.000, 0.000, 15:42:25.906, 1587847345906
165, 342.45, -181.19, 181.13, 67.15, 0.000, 0.000, 0.000, 15:42:25.922, 1587847345922
166, 88.87, -353.71, 54.86, -30.16, 0.000, 0.000, 0.000, 15:42:25.922, 1587847345922
167, 37.76, -386.40, 33.70, -3.88, 0.000, 0.000, 0.000, 15:42:25.923, 1587847345923
168, 316.00, -158.34, 199.18, 76.14, 0.000, 0.000, 0.000, 15:42:25.923, 1587847345923
169, 180.69, -281.03, 107.07, -3.65, 0.000, 0.000, 0.000, 15:42:25.937, 1587847345937
170, 33.36, -410.32, -107.76, -33.25, 0.000, 0.000, 0.000, 15:42:25.937, 1587847345937
171, 235.51, -243.82, 176.67, 69.43, 0.000, 0.000, 0.000, 15:42:25.953, 1587847345953
172, 123.87, -202.85, 166.90, 33.25, 0.000, 0.000, 0.000, 15:42:25.953, 1587847345953
173, 148.52, -392.73, 2.14, -47.60, 0.000, 0.000, 0.000, 15:42:25.955, 1587847345955
174, 190.53, -310.25, 65.90, 32.89, 0.000, 0.000, 0.000, 15:42:25.955, 1587847345955
175, 265.46, -166.37, 257.86, 62.83, 0.000, 0.000, 0.000, 15:42:25.966, 1587847345966
176, 78.91, -338.79, 18.82, -30.13, 0.000, 0.000, 0.000, 15:42:25.966, 1587847345966
177, -28.49, -402.10, -36.41, 0.91, 0.000, 0.000, 0.000, 15:42:25.982, 1587847345982
178, 286.59, -143.12, 224.41, 73.21, 0.000, 0.000, 0.000, 15:42:25.982, 1587847345982
179, 275.20, -237.18, 223.94, -2.93, 0.000, 0.000, 0.000, 15:42:25.984, 1587847345984
180, 49.57, -413.25, 1.24, -33.77, 0.000, 0.000, 0.000, 15:42:25.984, 1587847345984
181, 200.00, -244.28, 178.03, 62.25, 0.000, 0.000, 0.000, 15:42:25.996, 1587847345996
182, 233.02, -204.92, 162.04, 35.50, 0.000, 0.000, 0.000, 15:42:25.996, 1587847345996
183, -35.93, -416.81, -74.95, -43.00, 0.000, 0.000, 0.000, 15:42:26.013, 1587847346013
184, 44.48, -296.02, 186.30, 33.62, 0.000, 0.000, 0.000, 15:42:26.013, 1587847346013
185, 334.34, -149.69, 309.55, 61.11, 0.000, 0.000, 0.000, 15:42:26.015, 1587847346015
186, 126.33, -344.24, -9.38, -32.80, 0.000, 0.000, 0.000, 15:42:26.015, 1587847346015
187, 26.66, -389.56, 69.22, -1.71, 0.000, 0.000, 0.000, 15:42:26.026, 1587847346026
188, 226.70, -179.50, 172.93, 70.07, 0.000, 0.000, 0.000, 15:42:26.026, 1587847346026
189, 195.93, -261.37, -57.01, -3.22, 0.000, 0.000, 0.000, 15:42:26.042, 1587847346042
190, 2.11, -405.15, 160.95, -28.12, 0.000, 0.000, 0.000, 15:42:26.042, 1587847346042
191, 181.72, -232.06, 277.64, 69.88, 0.000, 0.000, 0.000, 15:42:26.045, 1587847346045
192, 176.82, -213.21, 241.86, 35.92, 0.000, 0.000, 0.000, 15:42:26.045, 1587847346045
193, -50.55, -411.88, -50.96, -41.89, 0.000, 0.000, 0.000, 15:42:26.056, 1587847346056
194, 212.99, -290.46, 115.00, 36.03, 0.000, 0.000, 0.000, 15:42:26.056, 1587847346056
195, 285.51, -163.56, 226.89, 66.90, 0.000, 0.000, 0.000, 15:42:26.073, 1587847346073
196, 66.97, -347.53, 107.78, -29.97, 0.000, 0.000, 0.000, 15:42:26.073, 1587847346073
197, 43.06, -411.45, 49.62, -4.11, 0.000, 0.000, 0.000, 15:42:26.074, 1587847346074
198, 177.45, -184.39, 246.29, 67.31, 0.000, 0.000, 0.000, 15:42:26.074, 1587847346074
199, 122.10, -262.76, 96.34, 3.66, 0.000, 0.000, 0.000, 15:42:26.087, 1587847346087
200, 82.58, -409.95, -142.11, -35.84, 0.000, 0.000, 0.000, 15:42:26.087, 1587847346087
0, 254.62, -214.17, 236.37, 66.50, 0.000, 0.000, 0.000, 15:42:26.088, 1587847346088
1, 219.89, -191.59, 309.46, 39.62, 0.000, 0.000, 0.000, 15:42:26.102, 1587847346102
2, -9.70, -419.73, 30.40, -43.63, 0.000, 0.000, 0.000, 15:42:26.102, 1587847346102
3, 120.69, -314.49, 98.28, 37.37, 0.000, 0.000, 0.000, 15:42:26.117, 1587847346117
4, 186.41, -167.10, 247.62, 69.24, 0.000, 0.000, 0.000, 15:42:26.117, 1587847346117
5, -10.79, -368.82, -21.21, -31.78, 0.000, 0.000, 0.000, 15:42:26.119, 1587847346119
6, 185.46, -350.35, -43.11, -4.43, 0.000, 0.000, 0.000, 15:42:26.119, 1587847346119
7, 312.60, -144.53, 338.38, 74.60, 0.000, 0.000, 0.000, 15:42:26.131, 1587847346131
8, 141.24, -291.59, 174.55, 2.25, 0.000, 0.000, 0.000, 15:42:26.131, 1587847346131
9, -24.22, -439.15, -20.14, -31.20, 0.000, 0.000, 0.000, 15:42:26.147, 1587847346147
10, 189.10, -243.68, 130.53, 64.23, 0.000, 0.000, 0.000, 15:42:26.147, 1587847346147
11, 216.23, -190.03, 260.49, 33.58, 0.000, 0.000, 0.000, 15:42:26.148, 1587847346148
12, -49.52, -428.25, 6.43, -42.74, 0.000, 0.000, 0.000, 15:42:26.148, 1587847346148
13, 134.75, -305.45, 62.58, 34.40, 0.000, 0.000, 0.000, 15:42:26.161, 1587847346161
14, 301.51, -147.16, 293.83, 66.24, 0.000, 0.000, 0.000, 15:42:26.161, 1587847346161
15, 116.98, -342.37, 48.99, -31.16, 0.000, 0.000, 0.000, 15:42:26.177, 1587847346177
16, 48.87, -391.19, 24.77, -3.53, 0.000, 0.000, 0.000, 15:42:26.177, 1587847346177
17, 255.82, -178.86, 191.43, 73.89, 0.000, 0.000, 0.000, 15:42:26.179, 1587847346179
18, 127.79, -266.29, 183.93, -3.11, 0.000, 0.000, 0.000, 15:42:26.179, 1587847346179
19, 6.64, -423.33, 4.18, -33.10, 0.000, 0.000, 0.000, 15:42:26.191, 1587847346191
20, 191.58, -242.55, 130.88, 67.22, 0.000, 0.000, 0.000, 15:42:26.191, 1587847346191
21, 252.96, -190.47, 178.07, 36.13, 0.000, 0.000, 0.000, 15:42:26.207, 1587847346207
22, 110.49, -371.90, -7.48, -41.80, 0.000, 0.000, 0.000, 15:42:26.207, 1587847346207
23, 87.20, -300.78, 166.30, 32.27, 0.000, 0.000, 0.000, 15:42:26.208, 1587847346208
24, 214.55, -165.10, 245.72, 68.18, 0.000, 0.000, 0.000, 15:42:26.208, 1587847346208
25, 134.65, -332.30, -91.98, -30.12, 0.000, 0.000, 0.000, 15:42:26.221, 1587847346221
26, 45.76, -385.60, 36.04, -2.62, 0.000, 0.000, 0.000, 15:42:26.221, 1587847346221
27, 270.70, -166.43, 309.95, 78.44, 0.000, 0.000, 0.000, 15:42:26.237, 1587847346237
28, 59.62, -276.92, 149.42, 2.08, 0.000, 0.000, 0.000, 15:42:26.237, 1587847346237
29, -19.01, -412.27, -35.21, -35.86, 0.000, 0.000, 0.000, 15:42:26.238, 1587847346238
30, 308.12, -212.99, 193.96, 61.69, 0.000, 0.000, 0.000, 15:42:26.238, 1587847346238
31, 254.46, -218.68, 192.17, 39.10, 0.000, 0.000, 0.000, 15:42:26.252, 1587847346252
32, 42.31, -387.43, -6.74, -45.85, 0.000, 0.000, 0.000, 15:42:26.252, 1587847346252
33, 88.59, -313.29, 58.36, 28.25, 0.000, 0.000, 0.000, 15:42:26.267, 1587847346267
34, 215.89, -182.79, 192.88, 62.68, 0.000, 0.000, 0.000, 15:42:26.267, 1587847346267
35, 112.27, -311.72, 92.47, -27.85, 0.000, 0.000, 0.000, 15:42:26.268, 1587847346268
36, 45.26, -377.71, 47.39, -9.07, 0.000, 0.000, 0.000, 15:42:26.268, 1587847346268
37, 253.41, -176.41, 206.17, 73.84, 0.000, 0.000, 0.000, 15:42:26.282, 1587847346282
38, 214.30, -254.40, 143.47, 0.44, 0.000, 0.000, 0.000, 15:42:26.282, 1587847346282
39, -12.35, -437.78, -41.33, -32.25, 0.000, 0.000, 0.000, 15:42:26.297, 1587847346297
40, 122.87, -255.93, 69.58, 59.08, 0.000, 0.000, 0.000, 15:42:26.297, 1587847346297
41, 293.04, -163.28, 211.01, 35.42, 0.000, 0.000, 0.000, 15:42:26.298, 1587847346298
42, 46.69, -385.23, 52.07, -40.35, 0.000, 0.000, 0.000, 15:42:26.298, 1587847346298
43, 105.70, -324.90, 56.52, 35.16, 0.000, 0.000, 0.000, 15:42:26.311, 1587847346311
44, 265.90, -171.49, 177.47, 64.43, 0.000, 0.000, 0.000, 15:42:26.311, 1587847346311
45, 103.46, -314.43, 77.39, -32.99, 0.000, 0.000, 0.000, 15:42:26.327, 1587847346327
46, 22.82, -388.87, -130.44, -5.84, 0.000, 0.000, 0.000, 15:42:26.327, 1587847346327
47, 304.19, -125.97, 324.13, 74.42, 0.000, 0.000, 0.000, 15:42:26.342, 1587847346342
48, 182.93, -252.35, 174.84, 2.04, 0.000, 0.000, 0.000, 15:42:26.342, 1587847346342
49, -3.16, -446.62, -57.72, -29.64, 0.000, 0.000, 0.000, 15:42:26.343, 1587847346343
50, 150.60, -249.16, 133.32, 63.68, 0.000, 0.000, 0.000, 15:42:26.343, 1587847346343
51, 204.24, -187.57, 129.25, 39.08, 0.000, 0.000, 0.000, 15:42:26.356, 1587847346356
52, 48.60, -373.07, 28.42, -40.84, 0.000, 0.000, 0.000, 15:42:26.356, 1587847346356
53, 116.66, -311.80, 137.21, 28.63, 0.000, 0.000, 0.000, 15:42:26.358, 1587847346358
54, 309.77, -153.07, 226.93, 65.37, 0.000, 0.000, 0.000, 15:42:26.358, 1587847346358
55, 76.47, -358.26, 29.39, -32.11, 0.000, 0.000, 0.000, 15:42:26.375, 1587847346375
56, 48.26, -372.37, -6.50, -6.37, 0.000, 0.000, 0.000, 15:42:26.375, 1587847346375
57, 200.01, -177.57, 121.38, 75.29, 0.000, 0.000, 0.000, 15:42:26.387, 1587847346387
58, 200.87, -245.83, 185.47, -0.58, 0.000, 0.000, 0.000, 15:42:26.387, 1587847346387
59, 23.81, -408.68, -8.73, -35.68, 0.000, 0.000, 0.000, 15:42:26.389, 1587847346389
60, 212.08, -218.61, 162.86, 64.38, 0.000, 0.000, 0.000, 15:42:26.389, 1587847346389
61, 231.13, -191.68, 191.75, 39.33, 0.000, 0.000, 0.000, 15:42:26.402, 1587847346402
62, 8.83, -439.71, -181.87, -40.02, 0.000, 0.000, 0.000, 15:42:26.402, 1587847346402
63, 152.92, -270.26, 116.41, 25.77, 0.000, 0.000, 0.000, 15:42:26.417, 1587847346417
64, 221.43, -138.19, 330.60, 67.32, 0.000, 0.000, 0.000, 15:42:26.417, 1587847346417
65, 65.81, -341.81, 59.45, -29.21, 0.000, 0.000, 0.000, 15:42:26.419, 1587847346419
66, 1.46, -392.95, 6.67, -8.57, 0.000, 0.000, 0.000, 15:42:26.419, 1587847346419
67, 292.16, -164.75, 198.93, 78.03, 0.000, 0.000, 0.000, 15:42:26.432, 1587847346432
68, 240.59, -244.54, 85.93, -0.26, 0.000, 0.000, 0.000, 15:42:26.432, 1587847346432
69, 7.68, -436.25, -70.50, -33.59, 0.000, 0.000, 0.000, 15:42:26.447, 1587847346447
70, 215.72, -218.66, 165.76, 60.56, 0.000, 0.000, 0.000, 15:42:26.447, 1587847346447
71, 244.58, -179.86, 109.65, 39.55, 0.000, 0.000, 0.000, 15:42:26.448, 1587847346448
72, 27.10, -383.74, 39.63, -46.02, 0.000, 0.000, 0.000, 15:42:26.448, 1587847346448
73, 29.10, -338.47, 85.66, 30.52, 0.000, 0.000, 0.000, 15:42:26.461, 1587847346461
74, 273.02, -167.10, 205.23, 62.87, 0.000, 0.000, 0.000, 15:42:26.461, 1587847346461
75, 179.39, -336.49, -58.38, -32.07, 0.000, 0.000, 0.000, 15:42:26.477, 1587847346477
76, 52.03, -357.83, 64.83, -6.56, 0.000, 0.000, 0.000, 15:42:26.477, 1587847346477
77, 210.63, -167.61, 229.02, 72.93, 0.000, 0.000, 0.000, 15:42:26.478, 1587847346478
78, 190.30, -256.54, 123.51, -1.00, 0.000, 0.000, 0.000, 15:42:26.478, 1587847346478
79, 0.56, -433.67, -129.12, -37.33, 0.000, 0.000, 0.000, 15:42:26.491, 1587847346491
80, 25.66, -230.48, 134.84, 61.22, 0.000, 0.000, 0.000, 15:42:26.491, 1587847346491
81, 325.54, -142.28, 240.68, 34.65, 0.000, 0.000, 0.000, 15:42:26.507, 1587847346507
82, 175.96, -358.36, -7.52, -48.21, 0.000, 0.000, 0.000, 15:42:26.507, 1587847346507
83, 149.13, -316.92, -20.69, 28.03, 0.000, 0.000, 0.000, 15:42:26.508, 1587847346508
84, 282.76, -174.48, 167.11, 65.93, 0.000, 0.000, 0.000, 15:42:26.508, 1587847346508
85, 140.46, -309.52, 10.23, -34.46, 0.000, 0.000, 0.000, 15:42:26.521, 1587847346521
86, 9.13, -396.38, -14.80, -10.02, 0.000, 0.000, 0.000, 15:42:26.521, 1587847346521
87, 226.93, -176.95, 177.46, 75.33, 0.000, 0.000, 0.000, 15:42:26.538, 1587847346538
88, 244.90, -219.35, 65.59, 4.06, 0.000, 0.000, 0.000, 15:42:26.538, 1587847346538
89, -24.97, -420.93, -94.10, -37.00, 0.000, 0.000, 0.000, 15:42:26.538, 1587847346538
90, 245.86, -232.46, 172.95, 59.72, 0.000, 0.000, 0.000, 15:42:26.538, 1587847346538
91, 291.39, -176.93, 181.12, 33.39, 0.000, 0.000, 0.000, 15:42:26.552, 1587847346552
92, -5.42, -420.79, -87.39, -50.03, 0.000, 0.000, 0.000, 15:42:26.552, 1587847346552
93, 124.37, -325.43, 53.73, 25.17, 0.000, 0.000, 0.000, 15:42:26.567, 1587847346567
94, 308.60, -118.33, 207.70, 66.28, 0.000, 0.000, 0.000, 15:42:26.567, 1587847346567
95, 120.57, -332.05, -8.73, -32.16, 0.000, 0.000, 0.000, 15:42:26.568, 1587847346568
96, 43.94, -393.18, 9.68, -10.07, 0.000, 0.000, 0.000, 15:42:26.568, 1587847346568
97, 265.58, -177.50, 187.08, 73.69, 0.000, 0.000, 0.000, 15:42:26.582, 1587847346582
98, 170.94, -256.88, 94.84, -0.53, 0.000, 0.000, 0.000, 15:42:26.582, 1587847346582
99, 16.59, -415.01, -62.89, -38.86, 0.000, 0.000, 0.000, 15:42:26.597, 1587847346597
100, 196.34, -247.55, 67.66, 58.51, 0.000, 0.000, 0.000, 15:42:26.597, 1587847346597
101, 251.86, -203.70, 87.89, 38.06, 0.000, 0.000, 0.000, 15:42:26.598, 1587847346598
102, 3.54, -381.79, 22.63, -45.41, 0.000, 0.000, 0.000, 15:42:26.598, 1587847346598
103, 131.06, -299.35, 85.95, 29.36, 0.000, 0.000, 0.000, 15:42:26.611, 1587847346611
104, 315.28, -160.05, 204.87, 67.08, 0.000, 0.000, 0.000, 15:42:26.611, 1587847346611
105, 93.49, -355.83, 9.09, -31.23, 0.000, 0.000, 0.000, 15:42:26.627, 1587847346627
106, 23.80, -403.99, -134.50, -12.40, 0.000, 0.000, 0.000, 15:42:26.627, 1587847346627
107, 293.35, -164.31, 193.27, 71.25, 0.000, 0.000, 0.000, 15:42:26.628, 1587847346628
108, 188.36, -265.23, 142.12, 0.86, 0.000, 0.000, 0.000, 15:42:26.628, 1587847346628
109, -13.73, -412.10, -46.57, -41.11, 0.000, 0.000, 0.000, 15:42:26.642, 1587847346642
110, 209.28, -235.08, 132.65, 63.20, 0.000, 0.000, 0.000, 15:42:26.642, 1587847346642
111, 279.98, -192.81, 123.66, 32.14, 0.000, 0.000, 0.000, 15:42:26.657, 1587847346657
112, 44.78, -403.31, -73.32, -44.85, 0.000, 0.000, 0.000, 15:42:26.657, 1587847346657
113, 103.99, -331.60, 74.25, 28.94, 0.000, 0.000, 0.000, 15:42:26.658, 1587847346658
114, 221.66, -151.26, 217.98, 65.82, 0.000, 0.000, 0.000, 15:42:26.658, 1587847346658
115, 126.01, -322.20, 31.74, -33.47, 0.000, 0.000, 0.000, 15:42:26.672, 1587847346672
116, 81.97, -389.95, -50.81, -8.91, 0.000, 0.000, 0.000, 15:42:26.672, 1587847346672
117, 272.01, -170.98, 125.20, 75.21, 0.000, 0.000, 0.000, 15:42:26.689, 1587847346689
118, 152.18, -255.87, 108.11, 1.69, 0.000, 0.000, 0.000, 15:42:26.689, 1587847346689
119, 0.34, -445.79, -39.35, -42.48, 0.000, 0.000, 0.000, 15:42:26.691, 1587847346691
120, 185.13, -242.81, 113.03, 57.85, 0.000, 0.000, 0.000, 15:42:26.691, 1587847346691
121, 288.24, -166.90, 191.52, 34.98, 0.000, 0.000, 0.000, 15:42:26.702, 1587847346702
122, 54.12, -390.17, -78.90, -46.33, 0.000, 0.000, 0.000, 15:42:26.702, 1587847346702
123, 141.05, -309.50, 28.92, 27.76, 0.000, 0.000, 0.000, 15:42:26.717, 1587847346717
124, 287.04, -158.82, 211.26, 65.22, 0.000, 0.000, 0.000, 15:42:26.717, 1587847346717
125, 34.25, -361.02, 34.09, -30.03, 0.000, 0.000, 0.000, 15:42:26.719, 1587847346719
126, 77.98, -364.55, -29.26, -6.69, 0.000, 0.000, 0.000, 15:42:26.719, 1587847346719
127, 311.57, -167.49, 185.51, 72.82, 0.000, 0.000, 0.000, 15:42:26.732, 1587847346732
128, 172.44, -253.39, 96.36, 2.01, 0.000, 0.000, 0.000, 15:42:26.732, 1587847346732
129, 13.00, -444.15, -146.42, -37.96, 0.000, 0.000, 0.000, 15:42:26.747, 1587847346747
130, 225.33, -236.55, 135.97, 54.44, 0.000, 0.000, 0.000, 15:42:26.747, 1587847346747
131, 250.37, -184.18, 223.89, 36.84, 0.000, 0.000, 0.000, 15:42:26.749, 1587847346749
132, 31.45, -404.29, -42.90, -46.11, 0.000, 0.000, 0.000, 15:42:26.749, 1587847346749
133, 114.58, -321.84, 31.18, 26.00, 0.000, 0.000, 0.000, 15:42:26.761, 1587847346761
134, 225.31, -186.97, 192.81, 65.89, 0.000, 0.000, 0.000, 15:42:26.761, 1587847346761
135, 103.86, -319.17, -7.78, -29.94, 0.000, 0.000, 0.000, 15:42:26.776, 1587847346776
136, 83.59, -369.03, -27.93, -10.92, 0.000, 0.000, 0.000, 15:42:26.776, 1587847346776
137, 282.11, -168.75, 208.48, 73.45, 0.000, 0.000, 0.000, 15:42:26.777, 1587847346777
138, 195.64, -250.53, 121.48, 2.74, 0.000, 0.000, 0.000, 15:42:26.777, 1587847346777
139, 8.67, -433.09, -80.21, -38.43, 0.000, 0.000, 0.000, 15:42:26.791, 1587847346791
140, 198.04, -255.63, 92.81, 61.72, 0.000, 0.000, 0.000, 15:42:26.791, 1587847346791
141, 251.11, -193.27, 189.91, 39.74, 0.000, 0.000, 0.000, 15:42:26.808, 1587847346808
142, 9.17, -406.64, -31.84, -42.74, 0.000, 0.000, 0.000, 15:42:26.808, 1587847346808
143, 80.62, -306.49, 39.96, 26.72, 0.000, 0.000, 0.000, 15:42:26.809, 1587847346809
144, 213.92, -157.63, 242.19, 68.78, 0.000, 0.000, 0.000, 15:42:26.809, 1587847346809
145, 149.50, -315.87, 72.14, -30.85, 0.000, 0.000, 0.000, 15:42:26.822, 1587847346822
146, 29.55, -408.95, -19.00, -10.94, 0.000, 0.000, 0.000, 15:42:26.822, 1587847346822
147, 244.98, -186.95, 186.06, 72.38, 0.000, 0.000, 0.000, 15:42:26.837, 1587847346837
148, 192.96, -259.57, 116.91, 1.14, 0.000, 0.000, 0.000, 15:42:26.837, 1587847346837
149, -0.77, -428.22, -65.65, -40.27, 0.000, 0.000, 0.000, 15:42:26.838, 1587847346838
150, 178.87, -252.71, 42.42, 58.56, 0.000, 0.000, 0.000, 15:42:26.838, 1587847346838
151, 238.09, -183.27, 261.84, 42.62, 0.000, 0.000, 0.000, 15:42:26.852, 1587847346852
152, 9.39, -402.01, 26.22, -41.58, 0.000, 0.000, 0.000, 15:42:26.852, 1587847346852
153, 71.61, -328.44, 64.34, 23.27, 0.000, 0.000, 0.000, 15:42:26.869, 1587847346869
154, 263.87, -164.43, 234.88, 67.51, 0.000, 0.000, 0.000, 15:42:26.869, 1587847346869
155, 54.59, -371.98, -3.11, -26.53, 0.000, 0.000, 0.000, 15:42:26.871, 1587847346871
156, 70.89, -379.24, -5.70, -9.95, 0.000, 0.000, 0.000, 15:42:26.871, 1587847346871
157, 273.82, -173.25, 193.03, 75.88, 0.000, 0.000, 0.000, 15:42:26.898, 1587847346898
158, 169.56, -257.91, 139.06, 3.06, 0.000, 0.000, 0.000, 15:42:26.898, 1587847346898
159, 8.54, -414.55, -20.60, -36.79, 0.000, 0.000, 0.000, 15:42:26.899, 1587847346899
160, 162.47, -266.58, 104.80, 57.51, 0.000, 0.000, 0.000, 15:42:26.899, 1587847346899
161, 216.52, -185.28, 205.62, 40.61, 0.000, 0.000, 0.000, 15:42:26.900, 1587847346900
162, -15.23, -429.31, -75.61, -42.46, 0.000, 0.000, 0.000, 15:42:26.900, 1587847346900
163, 109.90, -310.28, 37.92, 24.02, 0.000, 0.000, 0.000, 15:42:26.911, 1587847346911
164, 308.12, -141.12, 267.24, 71.25, 0.000, 0.000, 0.000, 15:42:26.911, 1587847346911
165, 102.40, -341.86, 72.73, -28.46, 0.000, 0.000, 0.000, 15:42:26.927, 1587847346927
166, -22.79, -421.67, -38.47, -11.95, 0.000, 0.000, 0.000, 15:42:26.927, 1587847346927
167, 271.74, -191.67, 138.06, 73.07, 0.000, 0.000, 0.000, 15:42:26.928, 1587847346928
168, 194.38, -233.82, 176.67, 5.69, 0.000, 0.000, 0.000, 15:42:26.928, 1587847346928
169, -15.41, -426.46, -24.57, -38.41, 0.000, 0.000, 0.000, 15:42:26.941, 1587847346941
170, 176.50, -257.54, 87.24, 57.75, 0.000, 0.000, 0.000, 15:42:26.941, 1587847346941
171, 213.49, -193.55, 254.95, 37.68, 0.000, 0.000, 0.000, 15:42:26.973, 1587847346973
172, 29.20, -395.81, -26.08, -43.75, 0.000, 0.000, 0.000, 15:42:26.973, 1587847346973
173, 107.96, -343.25, -22.01, 25.94, 0.000, 0.000, 0.000, 15:42:26.974, 1587847346974
174, 274.56, -139.93, 281.26, 64.01, 0.000, 0.000, 0.000, 15:42:26.974, 1587847346974
175, -6.50, -322.67, 83.85, -28.73, 0.000, 0.000, 0.000, 15:42:26.975, 1587847346975
176, 103.27, -393.36, -122.94, -12.24, 0.000, 0.000, 0.000, 15:42:26.975, 1587847346975
177, 270.52, -170.19, 238.03, 73.14, 0.000, 0.000, 0.000, 15:42:26.976, 1587847346976
178, 109.87, -260.59, 178.27, 3.95, 0.000, 0.000, 0.000, 15:42:26.976, 1587847346976
179, -5.36, -413.14, -44.08, -39.67, 0.000, 0.000, 0.000, 15:42:26.986, 1587847346986
180, 238.76, -235.77, 135.90, 60.81, 0.000, 0.000, 0.000, 15:42:26.986, 1587847346986
181, 245.43, -197.42, 152.84, 42.76, 0.000, 0.000, 0.000, 15:42:27.001, 1587847347001
182, -32.45, -391.77, -37.95, -41.86, 0.000, 0.000, 0.000, 15:42:27.001, 1587847347001
183, 117.96, -330.91, 102.89, 22.00, 0.000, 0.000, 0.000, 15:42:27.017, 1587847347017
184, 284.55, -152.08, 232.03, 70.65, 0.000, 0.000, 0.000, 15:42:27.017, 1587847347017
185, 83.45, -345.20, -8.00, -25.98, 0.000, 0.000, 0.000, 15:42:27.018, 1587847347018
186, -76.20, -426.35, -91.53, -16.23, 0.000, 0.000, 0.000, 15:42:27.018, 1587847347018
187, 266.91, -154.62, 272.04, 70.42, 0.000, 0.000, 0.000, 15:42:27.031, 1587847347031
188, 233.31, -217.36, 181.41, 5.11, 0.000, 0.000, 0.000, 15:42:27.031, 1587847347031
189, -10.57, -436.07, -34.00, -38.35, 0.000, 0.000, 0.000, 15:42:27.048, 1587847347048
190, 203.46, -249.16, 140.78, 59.06, 0.000, 0.000, 0.000, 15:42:27.048, 1587847347048
191, 220.93, -195.79, 136.30, 39.87, 0.000, 0.000, 0.000, 15:42:27.049, 1587847347049
192, 4.00, -415.01, -6.87, -43.08, 0.000, 0.000, 0.000, 15:42:27.049, 1587847347049
193, 100.37, -307.63, -13.65, 23.67, 0.000, 0.000, 0.000, 15:42:27.061, 1587847347061
194, 298.60, -140.90, 246.85, 63.83, 0.000, 0.000, 0.000, 15:42:27.061, 1587847347061
195, 55.63, -338.91, 107.55, -31.63, 0.000, 0.000, 0.000, 15:42:27.077, 1587847347077
196, -47.63, -427.84, -48.02, -13.79, 0.000, 0.000, 0.000, 15:42:27.077, 1587847347077
197, 289.11, -163.66, 185.72, 71.57, 0.000, 0.000, 0.000, 15:42:27.078, 1587847347078
198, 228.66, -224.78, 189.58, 6.56, 0.000, 0.000, 0.000, 15:42:27.078, 1587847347078
199, -20.49, -427.00, -34.54, -38.58, 0.000, 0.000, 0.000, 15:42:27.092, 1587847347092
200, 171.21, -252.42, 107.50, 63.34, 0.000, 0.000, 0.000, 15:42:27.092, 1587847347092
0, 197.16, -180.87, 166.48, 45.11, 0.000, 0.000, 0.000, 15:42:27.094, 1587847347094
1, -48.73, -417.04, -11.73, -43.07, 0.000, 0.000, 0.000, 15:42:27.106, 1587847347106
2, 96.50, -306.42, 53.00, 25.33, 0.000, 0.000, 0.000, 15:42:27.106, 1587847347106
3, 328.53, -129.07, 232.85, 68.23, 0.000, 0.000, 0.000, 15:42:27.122, 1587847347122
4, -34.49, -349.75, 24.80, -29.09, 0.000, 0.000, 0.000, 15:42:27.122, 1587847347122
5, 37.68, -398.65, -42.46, -12.58, 0.000, 0.000, 0.000, 15:42:27.138, 1587847347138
6, 314.48, -137.70, 201.67, 76.90, 0.000, 0.000, 0.000, 15:42:27.138, 1587847347138
7, -106.96, -226.32, 231.08, 9.30, 0.000, 0.000, 0.000, 15:42:27.139, 1587847347139
8, 94.04, -457.03, -102.25, -44.23, 0.000, 0.000, 0.000, 15:42:27.139, 1587847347139
9, 309.88, -223.93, 226.31, 58.39, 0.000, 0.000, 0.000, 15:42:27.152, 1587847347152
10, 242.83, -251.49, 202.53, 42.58, 0.000, 0.000, 0.000, 15:42:27.152, 1587847347152
11, 26.29, -363.48, 9.45, -44.31, 0.000, 0.000, 0.000, 15:42:27.154, 1587847347154
12, 87.94, -278.41, 70.92, 24.61, 0.000, 0.000, 0.000, 15:42:27.154, 1587847347154
13, 84.32, -182.50, 216.81, 67.48, 0.000, 0.000, 0.000, 15:42:27.168, 1587847347168
14, 122.28, -352.03, 0.13, -28.43, 0.000, 0.000, 0.000, 15:42:27.168, 1587847347168
15, 104.02, -390.28, -31.85, -13.99, 0.000, 0.000, 0.000, 15:42:27.185, 1587847347185
16, 33.40, -202.18, 241.64, 71.88, 0.000, 0.000, 0.000, 15:42:27.185, 1587847347185
17, 230.97, -256.31, 135.34, 7.77, 0.000, 0.000, 0.000, 15:42:27.187, 1587847347187
18, 83.44, -365.08, -11.73, -36.60, 0.000, 0.000, 0.000, 15:42:27.187, 1587847347187
19, 37.03, -234.00, 133.77, 61.80, 0.000, 0.000, 0.000, 15:42:27.197, 1587847347197
20, 284.49, -175.58, 157.02, 37.58, 0.000, 0.000, 0.000, 15:42:27.197, 1587847347197
21, 159.95, -346.22, 96.02, -40.40, 0.000, 0.000, 0.000, 15:42:27.212, 1587847347212
22, 128.76, -272.24, 111.25, 22.28, 0.000, 0.000, 0.000, 15:42:27.212, 1587847347212
23, 250.19, -147.00, 226.07, 65.73, 0.000, 0.000, 0.000, 15:42:27.214, 1587847347214
24, -105.48, -329.22, 42.67, -28.72, 0.000, 0.000, 0.000, 15:42:27.214, 1587847347214
25, 10.07, -336.25, 27.97, -8.13, 0.000, 0.000, 0.000, 15:42:27.228, 1587847347228
26, 263.01, -196.80, 116.94, 74.79, 0.000, 0.000, 0.000, 15:42:27.228, 1587847347228
27, 161.27, -222.86, 172.79, 9.39, 0.000, 0.000, 0.000, 15:42:27.243, 1587847347243
28, -14.38, -400.64, -101.33, -38.49, 0.000, 0.000, 0.000, 15:42:27.243, 1587847347243
29, 98.92, -280.17, 78.45, 55.35, 0.000, 0.000, 0.000, 15:42:27.244, 1587847347244
30, 317.88, -73.20, 321.28, 39.66, 0.000, 0.000, 0.000, 15:42:27.244, 1587847347244
31, 69.09, -299.64, 4.36, -40.78, 0.000, 0.000, 0.000, 15:42:27.256, 1587847347256
32, -50.91, -277.37, 69.54, 24.06, 0.000, 0.000, 0.000, 15:42:27.256, 1587847347256
33, 93.98, -143.68, 298.59, 68.48, 0.000, 0.000, 0.000, 15:42:27.272, 1587847347272
34, 223.58, -275.80, 57.08, -30.23, 0.000, 0.000, 0.000, 15:42:27.272, 1587847347272
35, 13.39, -388.43, -41.78, -13.12, 0.000, 0.000, 0.000, 15:42:27.274, 1587847347274
36, 261.28, -116.15, 194.86, 73.84, 0.000, 0.000, 0.000, 15:42:27.274, 1587847347274
37, 144.09, -176.03, 138.17, 9.48, 0.000, 0.000, 0.000, 15:42:27.286, 1587847347286
38, -97.57, -363.72, -29.84, -39.08, 0.000, 0.000, 0.000, 15:42:27.286, 1587847347286
39, 149.60, -196.93, 176.12, 61.36, 0.000, 0.000, 0.000, 15:42:27.302, 1587847347302
40, 293.82, -130.98, 203.05, 42.91, 0.000, 0.000, 0.000, 15:42:27.302, 1587847347302
41, -36.99, -321.22, -27.70, -42.84, 0.000, 0.000, 0.000, 15:42:27.304, 1587847347304
42, -37.55, -304.73, 75.63, 28.61, 0.000, 0.000, 0.000, 15:42:27.304, 1587847347304
43, 339.03, -83.99, 265.78, 68.80, 0.000, 0.000, 0.000, 15:42:27.316, 1587847347316
44, 136.90, -276.45, -40.82, -31.56, 0.000, 0.000, 0.000, 15:42:27.316, 1587847347316
45, 9.56, -361.05, -144.22, -13.22, 0.000, 0.000, 0.000, 15:42:27.332, 1587847347332
46, 111.92, -107.90, 346.94, 75.98, 0.000, 0.000, 0.000, 15:42:27.332, 1587847347332
47, 184.50, -167.37, 240.24, 13.30, 0.000, 0.000, 0.000, 15:42:27.333, 1587847347333
48, 20.27, -336.65, -5.07, -34.65, 0.000, 0.000, 0.000, 15:42:27.333, 1587847347333
49, 167.47, -194.55, 95.61, 60.07, 0.000, 0.000, 0.000, 15:42:27.363, 1587847347363
50, 32.62, -158.38, 225.25, 43.85, 0.000, 0.000, 0.000, 15:42:27.363, 1587847347363
51, 90.80, -335.28, 44.15, -39.77, 0.000, 0.000, 0.000, 15:42:27.364, 1587847347364
52, 44.89, -316.97, -8.77, 24.87, 0.000, 0.000, 0.000, 15:42:27.364, 1587847347364
53, 141.82, -162.14, 232.82, 72.45, 0.000, 0.000, 0.000, 15:42:27.366, 1587847347366
54, 178.66, -184.24, 220.22, -21.87, 0.000, 0.000, 0.000, 15:42:27.366, 1587847347366
55, -108.47, -387.99, -75.97, -7.30, 0.000, 0.000, 0.000, 15:42:27.376, 1587847347376
56, 341.49, -127.61, 208.85, 75.27, 0.000, 0.000, 0.000, 15:42:27.376, 1587847347376
57, 161.38, -202.41, 166.13, 12.53, 0.000, 0.000, 0.000, 15:42:27.392, 1587847347392
58, -136.68, -364.93, -140.42, -34.13, 0.000, 0.000, 0.000, 15:42:27.392, 1587847347392
59, 227.93, -204.72, 206.15, 63.29, 0.000, 0.000, 0.000, 15:42:27.394, 1587847347394
60, 113.05, -104.37, 210.10, 49.48, 0.000, 0.000, 0.000, 15:42:27.394, 1587847347394
61, 111.83, -305.04, 34.78, -37.71, 0.000, 0.000, 0.000, 15:42:27.406, 1587847347406
62, 45.66, -276.61, 133.16, 26.37, 0.000, 0.000, 0.000, 15:42:27.406, 1587847347406
63, 203.44, -100.98, 225.03, 66.83, 0.000, 0.000, 0.000, 15:42:27.422, 1587847347422
64, 169.54, -273.32, -39.51, -22.00, 0.000, 0.000, 0.000, 15:42:27.422, 1587847347422
65, -44.57, -400.77, 1.77, -11.27, 0.000, 0.000, 0.000, 15:42:27.425, 1587847347425
66, 43.60, -172.08, 311.86, 77.37, 0.000, 0.000, 0.000, 15:42:27.425, 1587847347425
67, 288.82, -108.92, 268.54, 14.97, 0.000, 0.000, 0.000, 15:42:27.453, 1587847347453
68, -25.51, -378.33, -62.12, -36.36, 0.000, 0.000, 0.000, 15:42:27.453, 1587847347453
69, 65.20, -231.53, 62.73, 63.74, 0.000, 0.000, 0.000, 15:42:27.454, 1587847347454
70, 324.94, -113.57, 212.74, 48.48, 0.000, 0.000, 0.000, 15:42:27.454, 1587847347454
71, 55.26, -346.31, -4.47, -40.14, 0.000, 0.000, 0.000, 15:42:27.455, 1587847347455
72, 40.65, -285.09, 46.35, 18.91, 0.000, 0.000, 0.000, 15:42:27.455, 1587847347455
73, 136.29, -149.94, 278.84, 72.61, 0.000, 0.000, 0.000, 15:42:27.466, 1587847347466
74, 106.99, -271.67, 64.99, -19.80, 0.000, 0.000, 0.000, 15:42:27.466, 1587847347466
75, 65.51, -293.22, 48.74, -9.22, 0.000, 0.000, 0.000, 15:42:27.482, 1587847347482
76, 129.28, -153.05, 232.32, 75.17, 0.000, 0.000, 0.000, 15:42:27.482, 1587847347482
77, 211.84, -207.52, 53.66, 11.96, 0.000, 0.000, 0.000, 15:42:27.483, 1587847347483
78, -56.32, -412.81, -44.83, -37.11, 0.000, 0.000, 0.000, 15:42:27.483, 1587847347483
79, 96.35, -213.75, 207.07, 58.60, 0.000, 0.000, 0.000, 15:42:27.513, 1587847347513
80, 298.80, -189.43, 46.03, 45.15, 0.000, 0.000, 0.000, 15:42:27.513, 1587847347513
81, 103.86, -288.98, 20.14, -40.78, 0.000, 0.000, 0.000, 15:42:27.514, 1587847347514
82, 64.49, -231.94, 208.01, 26.51, 0.000, 0.000, 0.000, 15:42:27.514, 1587847347514
83, 25.65, -141.89, 211.46, 75.08, 0.000, 0.000, 0.000, 15:42:27.514, 1587847347514
84, 113.64, -412.70, 6.11, -24.72, 0.000, 0.000, 0.000, 15:42:27.515, 1587847347515
85, 97.44, -277.75, 156.79, -14.01, 0.000, 0.000, 0.000, 15:42:27.526, 1587847347526
86, 287.11, -94.98, 240.01, 73.94, 0.000, 0.000, 0.000, 15:42:27.526, 1587847347526
87, 228.52, -185.99, 95.47, 12.40, 0.000, 0.000, 0.000, 15:42:27.542, 1587847347542
88, -71.87, -400.41, -40.53, -42.42, 0.000, 0.000, 0.000, 15:42:27.542, 1587847347542
89, 143.67, -233.18, 122.33, 52.71, 0.000, 0.000, 0.000, 15:42:27.543, 1587847347543
90, 244.45, -159.70, 155.07, 43.33, 0.000, 0.000, 0.000, 15:42:27.543, 1587847347543
91, 44.22, -309.01, 93.34, -37.46, 0.000, 0.000, 0.000, 15:42:27.556, 1587847347556
92, 77.58, -287.71, 96.97, 22.35, 0.000, 0.000, 0.000, 15:42:27.556, 1587847347556
93, 262.71, -123.43, 188.71, 63.86, 0.000, 0.000, 0.000, 15:42:27.573, 1587847347573
94, -151.50, -316.73, 13.51, -24.07, 0.000, 0.000, 0.000, 15:42:27.573, 1587847347573
95, 119.75, -339.99, 24.40, -12.61, 0.000, 0.000, 0.000, 15:42:27.574, 1587847347574
96, 318.25, -133.00, 233.47, 71.79, 0.000, 0.000, 0.000, 15:42:27.574, 1587847347574
97, 151.00, -178.51, 220.27, 8.98, 0.000, 0.000, 0.000, 15:42:27.586, 1587847347586
98, 13.21, -406.18, -95.69, -38.35, 0.000, 0.000, 0.000, 15:42:27.586, 1587847347586
99, 104.53, -232.93, 21.19, 54.11, 0.000, 0.000, 0.000, 15:42:27.602, 1587847347602
100, 102.99, -125.20, 245.15, 46.28, 0.000, 0.000, 0.000, 15:42:27.602, 1587847347602
101, 61.37, -323.43, 94.50, -42.69, 0.000, 0.000, 0.000, 15:42:27.604, 1587847347604
102, 185.49, -291.40, 34.34, 21.04, 0.000, 0.000, 0.000, 15:42:27.604, 1587847347604
103, 312.37, -113.85, 309.82, 68.72, 0.000, 0.000, 0.000, 15:42:27.616, 1587847347616
104, 89.89, -324.17, -19.40, -22.83, 0.000, 0.000, 0.000, 15:42:27.616, 1587847347616
105, -42.18, -425.74, -69.26, -18.24, 0.000, 0.000, 0.000, 15:42:27.632, 1587847347632
106, 220.86, -79.06, 351.80, 74.64, 0.000, 0.000, 0.000, 15:42:27.632, 1587847347632
107, 213.36, -184.21, 210.27, 11.62, 0.000, 0.000, 0.000, 15:42:27.633, 1587847347633
108, -95.67, -385.85, -51.35, -44.04, 0.000, 0.000, 0.000, 15:42:27.633, 1587847347633
109, 178.86, -230.57, 71.81, 54.04, 0.000, 0.000, 0.000, 15:42:27.646, 1587847347646
110, 333.86, -122.74, 169.10, 43.78, 0.000, 0.000, 0.000, 15:42:27.646, 1587847347646
111, -15.79, -371.48, -29.26, -42.77, 0.000, 0.000, 0.000, 15:42:27.662, 1587847347662
112, 37.76, -304.54, 40.45, 17.49, 0.000, 0.000, 0.000, 15:42:27.662, 1587847347662
113, 227.00, -123.61, 291.16, 68.57, 0.000, 0.000, 0.000, 15:42:27.663, 1587847347663
114, 112.99, -276.90, 59.74, -24.62, 0.000, 0.000, 0.000, 15:42:27.663, 1587847347663
115, 96.19, -331.74, 93.14, -13.99, 0.000, 0.000, 0.000, 15:42:27.676, 1587847347676
116, 216.48, -153.60, 227.60, 73.75, 0.000, 0.000, 0.000, 15:42:27.676, 1587847347676
117, 185.77, -218.05, 101.56, 14.74, 0.000, 0.000, 0.000, 15:42:27.692, 1587847347692
118, -134.62, -425.37, -160.54, -36.27, 0.000, 0.000, 0.000, 15:42:27.692, 1587847347692
119, 197.08, -205.31, 212.56, 60.56, 0.000, 0.000, 0.000, 15:42:27.693, 1587847347693
120, 358.10, -96.54, 317.45, 45.06, 0.000, 0.000, 0.000, 15:42:27.693, 1587847347693
121, 11.34, -376.02, -5.67, -37.49, 0.000, 0.000, 0.000, 15:42:27.706, 1587847347706
122, 59.40, -326.51, -36.84, 18.59, 0.000, 0.000, 0.000, 15:42:27.706, 1587847347706
123, 250.91, -91.29, 315.09, 71.28, 0.000, 0.000, 0.000, 15:42:27.724, 1587847347724
124, 13.55, -302.64, 72.23, -18.46, 0.000, 0.000, 0.000, 15:42:27.724, 1587847347724
125, 17.10, -361.93, 11.60, -21.14, 0.000, 0.000, 0.000, 15:42:27.725, 1587847347725
126, 316.84, -155.21, 57.04, 73.25, 0.000, 0.000, 0.000, 15:42:27.725, 1587847347725
127, 147.22, -217.29, 93.48, 12.01, 0.000, 0.000, 0.000, 15:42:27.737, 1587847347737
128, -9.78, -390.69, 78.25, -38.00, 0.000, 0.000, 0.000, 15:42:27.737, 1587847347737
129, 251.45, -206.73, 180.84, 60.67, 0.000, 0.000, 0.000, 15:42:27.752, 1587847347752
130, 134.35, -146.59, 232.97, 45.59, 0.000, 0.000, 0.000, 15:42:27.752, 1587847347752
131, -158.04, -399.64, -5.24, -36.31, 0.000, 0.000, 0.000, 15:42:27.767, 1587847347767
132, 280.50, -285.27, -27.53, 22.84, 0.000, 0.000, 0.000, 15:42:27.767, 1587847347767
133, 339.99, -124.90, 217.41, 69.48, 0.000, 0.000, 0.000, 15:42:27.769, 1587847347769
134, 119.48, -288.21, 129.29, -23.97, 0.000, 0.000, 0.000, 15:42:27.769, 1587847347769
135, -154.48, -391.31, -1.32, -16.13, 0.000, 0.000, 0.000, 15:42:27.782, 1587847347782
136, 111.42, -227.86, 135.71, 74.83, 0.000, 0.000, 0.000, 15:42:27.782, 1587847347782
137, 382.02, -161.45, 141.52, 11.67, 0.000, 0.000, 0.000, 15:42:27.784, 1587847347784
138, 73.01, -346.53, 69.78, -43.75, 0.000, 0.000, 0.000, 15:42:27.784, 1587847347784
139, 102.13, -244.23, 41.66, 53.29, 0.000, 0.000, 0.000, 15:42:27.797, 1587847347797
140, 305.63, -138.33, 244.54, 46.09, 0.000, 0.000, 0.000, 15:42:27.797, 1587847347797
141, -115.51, -376.40, 45.47, -41.21, 0.000, 0.000, 0.000, 15:42:27.812, 1587847347812
142, 27.82, -343.35, 50.73, 23.45, 0.000, 0.000, 0.000, 15:42:27.812, 1587847347812
143, 372.19, -85.62, 186.78, 73.50, 0.000, 0.000, 0.000, 15:42:27.814, 1587847347814
144, 138.93, -289.88, 59.76, -23.41, 0.000, 0.000, 0.000, 15:42:27.814, 1587847347814
145, -153.21, -406.00, 11.89, -19.57, 0.000, 0.000, 0.000, 15:42:27.827, 1587847347827
146, 351.19, -116.83, 248.85, 71.90, 0.000, 0.000, 0.000, 15:42:27.827, 1587847347827
147, 252.16, -203.71, 94.06, 15.80, 0.000, 0.000, 0.000, 15:42:27.843, 1587847347843
148, -14.72, -401.00, -149.53, -39.79, 0.000, 0.000, 0.000, 15:42:27.843, 1587847347843
149, 210.29, -212.71, 259.38, 52.97, 0.000, 0.000, 0.000, 15:42:27.848, 1587847347848
150, 144.49, -168.15, 217.58, 49.34, 0.000, 0.000, 0.000, 15:42:27.848, 1587847347848
151, 26.68, -336.98, -14.65, -37.92, 0.000, 0.000, 0.000, 15:42:27.856, 1587847347856
152, 89.68, -316.51, 63.98, 19.59, 0.000, 0.000, 0.000, 15:42:27.856, 1587847347856
153, 192.38, -152.75, 202.50, 72.69, 0.000, 0.000, 0.000, 15:42:27.873, 1587847347873
154, 110.81, -297.15, 85.84, -19.94, 0.000, 0.000, 0.000, 15:42:27.873, 1587847347873
155, -17.33, -371.63, -28.82, -19.70, 0.000, 0.000, 0.000, 15:42:27.875, 1587847347875
156, 235.63, -132.67, 240.98, 70.01, 0.000, 0.000, 0.000, 15:42:27.875, 1587847347875
157, 296.65, -192.60, 210.57, 15.89, 0.000, 0.000, 0.000, 15:42:27.886, 1587847347886
158, 50.75, -400.09, -79.32, -40.33, 0.000, 0.000, 0.000, 15:42:27.886, 1587847347886
159, 145.07, -239.17, 176.16, 54.79, 0.000, 0.000, 0.000, 15:42:27.902, 1587847347902
160, 211.84, -182.18, 130.84, 53.69, 0.000, 0.000, 0.000, 15:42:27.902, 1587847347902
161, -91.20, -374.29, -37.96, -43.44, 0.000, 0.000, 0.000, 15:42:27.904, 1587847347904
162, -36.51, -265.32, 129.67, 14.16, 0.000, 0.000, 0.000, 15:42:27.904, 1587847347904
163, 469.31, -153.36, 107.43, 71.36, 0.000, 0.000, 0.000, 15:42:27.917, 1587847347917
164, 143.87, -283.95, 178.23, -23.13, 0.000, 0.000, 0.000, 15:42:27.917, 1587847347917
165, -14.73, -384.54, 41.03, -12.56, 0.000, 0.000, 0.000, 15:42:27.932, 1587847347932
166, 232.97, -172.87, 195.11, 70.83, 0.000, 0.000, 0.000, 15:42:27.932, 1587847347932
167, 182.87, -235.73, 3.95, 14.14, 0.000, 0.000, 0.000, 15:42:27.938, 1587847347938
168, -55.51, -401.28, -9.91, -43.64, 0.000, 0.000, 0.000, 15:42:27.938, 1587847347938
169, 227.10, -175.42, 250.25, 51.42, 0.000, 0.000, 0.000, 15:42:27.947, 1587847347947
170, 164.18, -125.57, 265.68, 44.16, 0.000, 0.000, 0.000, 15:42:27.947, 1587847347947
171, 12.66, -377.02, -9.05, -37.87, 0.000, 0.000, 0.000, 15:42:27.962, 1587847347962
172, 135.70, -318.03, 34.84, 18.20, 0.000, 0.000, 0.000, 15:42:27.962, 1587847347962
173, 292.24, -156.73, 208.57, 72.15, 0.000, 0.000, 0.000, 15:42:27.967, 1587847347967
174, 137.19, -276.48, 124.67, -20.78, 0.000, 0.000, 0.000, 15:42:27.968, 1587847347968
175, 55.75, -388.29, -61.62, -14.32, 0.000, 0.000, 0.000, 15:42:27.977, 1587847347977
176, 249.38, -149.56, 160.09, 76.81, 0.000, 0.000, 0.000, 15:42:27.977, 1587847347977
177, 166.85, -223.39, 191.07, 10.64, 0.000, 0.000, 0.000, 15:42:27.993, 1587847347993
178, -144.01, -422.56, -28.01, -37.03, 0.000, 0.000, 0.000, 15:42:27.993, 1587847347993
179, 170.95, -216.63, 131.41, 50.73, 0.000, 0.000, 0.000, 15:42:27.994, 1587847347994
180, 367.45, -136.00, 222.28, 48.87, 0.000, 0.000, 0.000, 15:42:27.994, 1587847347994
181, 40.98, -354.90, -28.78, -42.12, 0.000, 0.000, 0.000, 15:42:28.006, 1587847348006
182, -25.84, -381.07, 148.74, 15.42, 0.000, 0.000, 0.000, 15:42:28.006, 1587847348006
183, 255.08, -216.42, 213.82, 69.28, 0.000, 0.000, 0.000, 15:42:28.022, 1587847348022
184, 241.00, -262.93, 56.51, -23.87, 0.000, 0.000, 0.000, 15:42:28.022, 1587847348022
185, -4.55, -345.91, 0.34, -18.01, 0.000, 0.000, 0.000, 15:42:28.023, 1587847348023
186, 234.13, -224.08, 223.56, 77.47, 0.000, 0.000, 0.000, 15:42:28.023, 1587847348023
187, 46.98, -252.66, 160.43, 14.49, 0.000, 0.000, 0.000, 15:42:28.037, 1587847348037
188, 81.86, -375.36, -39.07, -40.94, 0.000, 0.000, 0.000, 15:42:28.037, 1587847348037
189, 191.45, -232.47, 187.44, 52.92, 0.000, 0.000, 0.000, 15:42:28.052, 1587847348052
190, 363.08, -129.39, 146.65, 48.88, 0.000, 0.000, 0.000, 15:42:28.052, 1587847348052
191, 4.66, -364.32, 21.49, -37.69, 0.000, 0.000, 0.000, 15:42:28.053, 1587847348053
192, 37.59, -412.51, 18.22, 16.40, 0.000, 0.000, 0.000, 15:42:28.053, 1587847348053
193, 342.83, -54.73, 209.06, 73.02, 0.000, 0.000, 0.000, 15:42:28.066, 1587847348066
194, 138.26, -260.77, 181.51, -22.19, 0.000, 0.000, 0.000, 15:42:28.066, 1587847348066
195, -12.60, -429.15, -10.97, -16.78, 0.000, 0.000, 0.000, 15:42:28.081, 1587847348081
196, 158.84, -191.16, 175.39, 71.02, 0.000, 0.000, 0.000, 15:42:28.081, 1587847348081
197, 128.50, -182.97, 143.88, 13.53, 0.000, 0.000, 0.000, 15:42:28.082, 1587847348082
198, 58.21, -386.76, -50.77, -41.46, 0.000, 0.000, 0.000, 15:42:28.082, 1587847348082
199, 196.33, -220.52, 198.60, 57.37, 0.000, 0.000, 0.000, 15:42:28.096, 1587847348096
200, 294.25, -171.80, 195.62, 49.64, 0.000, 0.000, 0.000, 15:42:28.096, 1587847348096
0, -15.02, -428.96, 1.73, -41.08, 0.000, 0.000, 0.000, 15:42:28.097, 1587847348097
1, -57.92, -252.33, 105.14, 15.74, 0.000, 0.000, 0.000, 15:42:28.111, 1587847348111
2, 333.84, -106.51, 199.96, 76.35, 0.000, 0.000, 0.000, 15:42:28.111, 1587847348111
3, 211.04, -317.74, -75.30, -17.10, 0.000, 0.000, 0.000, 15:42:28.126, 1587847348126
4, 7.08, -332.23, 55.58, -17.53, 0.000, 0.000, 0.000, 15:42:28.126, 1587847348126
5, 204.58, -173.42, 223.87, 72.20, 0.000, 0.000, 0.000, 15:42:28.127, 1587847348127
6, 59.52, -291.78, 225.37, 16.17, 0.000, 0.000, 0.000, 15:42:28.127, 1587847348127
7, 14.28, -436.50, -105.24, -38.40, 0.000, 0.000, 0.000, 15:42:28.143, 1587847348143
8, 288.76, -147.72, 182.24, 53.63, 0.000, 0.000, 0.000, 15:42:28.143, 1587847348143
9, 256.10, -131.89, 253.27, 51.21, 0.000, 0.000, 0.000, 15:42:28.157, 1587847348157
10, -45.13, -353.51, -26.96, -41.01, 0.000, 0.000, 0.000, 15:42:28.157, 1587847348157
11, -93.87, -448.31, -45.02, 13.13, 0.000, 0.000, 0.000, 15:42:28.158, 1587847348158
12, 496.06, -25.35, 172.59, 72.86, 0.000, 0.000, 0.000, 15:42:28.158, 1587847348158
13, 188.64, -213.24, 174.14, -17.81, 0.000, 0.000, 0.000, 15:42:28.171, 1587847348171
14, -100.55, -395.11, -4.26, -16.04, 0.000, 0.000, 0.000, 15:42:28.171, 1587847348171
15, 136.85, -259.88, 162.78, 73.65, 0.000, 0.000, 0.000, 15:42:28.187, 1587847348187
16, 283.84, -139.51, 242.97, 12.15, 0.000, 0.000, 0.000, 15:42:28.187, 1587847348187
17, 91.73, -342.85, -32.75, -41.44, 0.000, 0.000, 0.000, 15:42:28.188, 1587847348188
18, 155.81, -243.19, 100.38, 51.90, 0.000, 0.000, 0.000, 15:42:28.188, 1587847348188
19, 217.81, -153.00, 194.62, 49.21, 0.000, 0.000, 0.000, 15:42:28.202, 1587847348202
20, 54.32, -371.27, -66.21, -40.22, 0.000, 0.000, 0.000, 15:42:28.202, 1587847348202
21, -36.93, -321.52, 79.93, 18.88, 0.000, 0.000, 0.000, 15:42:28.217, 1587847348217
22, 186.95, -123.80, 305.33, 74.78, 0.000, 0.000, 0.000, 15:42:28.217, 1587847348217
23, 220.19, -266.79, 64.98, -20.03, 0.000, 0.000, 0.000, 15:42:28.218, 1587847348218
24, 87.77, -350.17, -18.92, -15.84, 0.000, 0.000, 0.000, 15:42:28.218, 1587847348218
25, 167.27, -178.20, 133.88, 74.12, 0.000, 0.000, 0.000, 15:42:28.231, 1587847348231
26, 254.82, -177.88, 80.59, 14.50, 0.000, 0.000, 0.000, 15:42:28.231, 1587847348231
27, 41.62, -366.50, 68.26, -45.79, 0.000, 0.000, 0.000, 15:42:28.247, 1587847348247
28, 52.07, -266.57, 55.08, 52.53, 0.000, 0.000, 0.000, 15:42:28.247, 1587847348247
29, 291.36, -137.07, 217.82, 49.59, 0.000, 0.000, 0.000, 15:42:28.249, 1587847348249
30, 39.05, -348.53, 34.47, -41.60, 0.000, 0.000, 0.000, 15:42:28.249, 1587847348249
31, -79.52, -342.33, 48.16, 12.12, 0.000, 0.000, 0.000, 15:42:28.261, 1587847348261
32, 317.07, -95.28, 274.01, 73.96, 0.000, 0.000, 0.000, 15:42:28.261, 1587847348261
33, 230.68, -264.09, 81.98, -20.04, 0.000, 0.000, 0.000, 15:42:28.277, 1587847348277
34, -14.45, -396.88, -77.32, -19.92, 0.000, 0.000, 0.000, 15:42:28.277, 1587847348277
35, 185.33, -220.70, 180.62, 72.25, 0.000, 0.000, 0.000, 15:42:28.277, 1587847348277
36, 128.33, -223.29, 142.02, 15.61, 0.000, 0.000, 0.000, 15:42:28.277, 1587847348277
37, 29.93, -415.66, -229.97, -41.51, 0.000, 0.000, 0.000, 15:42:28.293, 1587847348293
38, 323.43, -123.42, 234.47, 52.01, 0.000, 0.000, 0.000, 15:42:28.293, 1587847348293
39, 269.10, -126.00, 314.34, 51.89, 0.000, 0.000, 0.000, 15:42:28.307, 1587847348307
40, 21.45, -389.53, 10.55, -37.58, 0.000, 0.000, 0.000, 15:42:28.307, 1587847348307
41, -36.38, -371.42, -19.36, 12.79, 0.000, 0.000, 0.000, 15:42:28.308, 1587847348308
42, 176.32, -94.62, 244.53, 67.52, 0.000, 0.000, 0.000, 15:42:28.308, 1587847348308
43, 232.08, -275.38, 80.13, -19.32, 0.000, 0.000, 0.000, 15:42:28.320, 1587847348320
44, 8.13, -390.97, -32.68, -18.69, 0.000, 0.000, 0.000, 15:42:28.320, 1587847348320
45, 264.47, -164.79, 177.71, 72.30, 0.000, 0.000, 0.000, 15:42:28.337, 1587847348337
46, 226.99, -195.79, 121.34, 17.99, 0.000, 0.000, 0.000, 15:42:28.337, 1587847348337
47, 25.73, -374.11, -36.79, -38.66, 0.000, 0.000, 0.000, 15:42:28.338, 1587847348338
48, 63.86, -273.87, 55.36, 50.43, 0.000, 0.000, 0.000, 15:42:28.338, 1587847348338
49, 307.24, -145.28, 287.40, 51.12, 0.000, 0.000, 0.000, 15:42:28.351, 1587847348351
50, 57.00, -316.23, -70.92, -42.02, 0.000, 0.000, 0.000, 15:42:28.351, 1587847348351
51, 149.77, -298.20, 79.39, 13.19, 0.000, 0.000, 0.000, 15:42:28.366, 1587847348366
52, 204.66, -151.72, 247.13, 70.45, 0.000, 0.000, 0.000, 15:42:28.366, 1587847348366
53, 130.44, -287.80, 64.08, -19.92, 0.000, 0.000, 0.000, 15:42:28.368, 1587847348368
54, 26.87, -393.73, -77.10, -24.99, 0.000, 0.000, 0.000, 15:42:28.368, 1587847348368
55, 189.57, -199.42, 143.79, 71.32, 0.000, 0.000, 0.000, 15:42:28.381, 1587847348381
56, 196.22, -235.79, 56.28, 15.63, 0.000, 0.000, 0.000, 15:42:28.381, 1587847348381
57, 61.43, -339.70, 85.12, -42.33, 0.000, 0.000, 0.000, 15:42:28.396, 1587847348396
58, 120.19, -215.47, 169.11, 53.03, 0.000, 0.000, 0.000, 15:42:28.396, 1587847348396
59, 274.89, -138.51, 213.16, 55.11, 0.000, 0.000, 0.000, 15:42:28.397, 1587847348397
60, 43.73, -369.07, -18.27, -40.75, 0.000, 0.000, 0.000, 15:42:28.397, 1587847348397
61, 57.94, -316.53, 4.55, 11.03, 0.000, 0.000, 0.000, 15:42:28.411, 1587847348411
62, 323.59, -118.43, 123.17, 73.54, 0.000, 0.000, 0.000, 15:42:28.411, 1587847348411
63, -53.87, -304.35, 156.96, -17.82, 0.000, 0.000, 0.000, 15:42:28.426, 1587847348426
64, 63.81, -411.57, -36.32, -23.67, 0.000, 0.000, 0.000, 15:42:28.426, 1587847348426
65, 363.60, -139.42, 246.73, 76.13, 0.000, 0.000, 0.000, 15:42:28.427, 1587847348427
66, 227.67, -215.29, 87.81, 17.49, 0.000, 0.000, 0.000, 15:42:28.427, 1587847348427
67, -18.45, -391.67, -164.11, -42.58, 0.000, 0.000, 0.000, 15:42:28.441, 1587847348441
68, 174.92, -242.07, 216.95, 49.28, 0.000, 0.000, 0.000, 15:42:28.441, 1587847348441
69, 269.14, -136.74, 241.80, 52.59, 0.000, 0.000, 0.000, 15:42:28.457, 1587847348457
70, 76.74, -354.82, 1.34, -42.45, 0.000, 0.000, 0.000, 15:42:28.457, 1587847348457
71, 93.25, -332.31, 29.87, 12.91, 0.000, 0.000, 0.000, 15:42:28.458, 1587847348458
72, 272.73, -161.56, 195.30, 69.39, 0.000, 0.000, 0.000, 15:42:28.458, 1587847348458
73, 127.14, -302.77, 66.14, -18.68, 0.000, 0.000, 0.000, 15:42:28.471, 1587847348471
74, -0.37, -378.06, -35.74, -19.13, 0.000, 0.000, 0.000, 15:42:28.471, 1587847348471
75, 235.76, -176.55, 162.73, 76.04, 0.000, 0.000, 0.000, 15:42:28.487, 1587847348487
76, 261.06, -170.94, 180.32, 18.39, 0.000, 0.000, 0.000, 15:42:28.487, 1587847348487
77, 11.68, -395.25, -28.91, -40.28, 0.000, 0.000, 0.000, 15:42:28.488, 1587847348488
78, 169.51, -255.77, 94.09, 49.05, 0.000, 0.000, 0.000, 15:42:28.488, 1587847348488
79, 299.84, -131.42, 228.58, 54.11, 0.000, 0.000, 0.000, 15:42:28.502, 1587847348502
80, 43.46, -374.73, -20.54, -38.82, 0.000, 0.000, 0.000, 15:42:28.502, 1587847348502
81, 86.73, -337.25, 20.39, 12.33, 0.000, 0.000, 0.000, 15:42:28.516, 1587847348516
82, 287.22, -141.16, 221.06, 74.38, 0.000, 0.000, 0.000, 15:42:28.516, 1587847348516
83, 160.25, -274.50, 82.25, -15.94, 0.000, 0.000, 0.000, 15:42:28.518, 1587847348518
84, 50.96, -393.09, -16.61, -21.47, 0.000, 0.000, 0.000, 15:42:28.518, 1587847348518
85, 279.76, -171.60, 199.47, 74.37, 0.000, 0.000, 0.000, 15:42:28.531, 1587847348531
86, 243.27, -199.75, 179.20, 19.34, 0.000, 0.000, 0.000, 15:42:28.531, 1587847348531
87, 77.77, -383.49, -11.81, -43.83, 0.000, 0.000, 0.000, 15:42:28.547, 1587847348547
88, 229.26, -219.54, 136.59, 48.88, 0.000, 0.000, 0.000, 15:42:28.547, 1587847348547
89, 320.09, -119.01, 229.96, 55.16, 0.000, 0.000, 0.000, 15:42:28.562, 1587847348562
90, 141.41, -312.14, 47.69, -39.82, 0.000, 0.000, 0.000, 15:42:28.562, 1587847348562
91, 167.39, -282.96, 64.87, 22.55, 0.000, 0.000, 0.000, 15:42:28.562, 1587847348562
92, 377.68, -64.72, 274.20, 80.76, 0.000, 0.000, 0.000, 15:42:28.562, 1587847348562
93, 236.15, -214.47, 99.53, -15.71, 0.000, 0.000, 0.000, 15:42:28.576, 1587847348576
94, 146.15, -310.06, -6.54, -18.39, 0.000, 0.000, 0.000, 15:42:28.576, 1587847348576
95, 344.36, -109.70, 198.69, 73.51, 0.000, 0.000, 0.000, 15:42:28.578, 1587847348578
96, 334.87, -132.18, 167.70, 23.22, 0.000, 0.000, 0.000, 15:42:28.578, 1587847348578
97, 131.67, -322.96, -25.37, -31.82, 0.000, 0.000, 0.000, 15:42:28.591, 1587847348591
98, 270.97, -188.10, 109.21, 57.34, 0.000, 0.000, 0.000, 15:42:28.591, 1587847348591
99, 357.36, -102.79, 187.03, 62.05, 0.000, 0.000, 0.000, 15:42:28.607, 1587847348607
100, 166.56, -285.34, 5.55, -30.67, 0.000, 0.000, 0.000, 15:42:28.607, 1587847348607
101, 154.15, -287.31, 9.62, 15.74, 0.000, 0.000, 0.000, 15:42:28.608, 1587847348608
102, 389.03, -68.42, 224.06, 76.84, 0.000, 0.000, 0.000, 15:42:28.608, 1587847348608
103, 218.66, -235.06, 48.21, -13.57, 0.000, 0.000, 0.000, 15:42:28.621, 1587847348621
104, 107.41, -338.22, -55.75, -21.33, 0.000, 0.000, 0.000, 15:42:28.621, 1587847348621
105, 303.62, -144.09, 145.01, 74.49, 0.000, 0.000, 0.000, 15:42:28.637, 1587847348637
106, 280.60, -161.80, 128.60, 25.32, 0.000, 0.000, 0.000, 15:42:28.637, 1587847348637
107, 62.19, -369.79, -84.86, -37.78, 0.000, 0.000, 0.000, 15:42:28.637, 1587847348637
108, 207.53, -229.81, 78.93, 48.09, 0.000, 0.000, 0.000, 15:42:28.637, 1587847348637
109, 316.24, -117.62, 174.23, 49.04, 0.000, 0.000, 0.000, 15:42:28.651, 1587847348651
110, 109.86, -312.44, -32.37, -35.86, 0.000, 0.000, 0.000, 15:42:28.651, 1587847348651
111, 95.35, -332.34, -39.26, 14.62, 0.000, 0.000, 0.000, 15:42:28.667, 1587847348667
112, 303.20, -131.70, 164.55, 70.32, 0.000, 0.000, 0.000, 15:42:28.667, 1587847348667
113, 171.14, -258.55, 28.54, -13.08, 0.000, 0.000, 0.000, 15:42:28.668, 1587847348668
114, 47.54, -388.73, -96.07, -25.27, 0.000, 0.000, 0.000, 15:42:28.668, 1587847348668
115, 238.41, -188.53, 110.06, 73.98, 0.000, 0.000, 0.000, 15:42:28.684, 1587847348684
116, 237.13, -201.15, 106.42, 17.18, 0.000, 0.000, 0.000, 15:42:28.684, 1587847348684
117, 18.27, -408.74, -115.72, -43.67, 0.000, 0.000, 0.000, 15:42:28.696, 1587847348696
118, 170.52, -256.78, 55.48, 49.39, 0.000, 0.000, 0.000, 15:42:28.696, 1587847348696
119, 284.00, -155.73, 150.68, 49.70, 0.000, 0.000, 0.000, 15:42:28.698, 1587847348698
120, 70.13, -371.41, -55.81, -38.94, 0.000, 0.000, 0.000, 15:42:28.698, 1587847348698
121, 77.53, -357.79, -37.70, 7.91, 0.000, 0.000, 0.000, 15:42:28.711, 1587847348711
122, 286.83, -151.36, 166.32, 71.31, 0.000, 0.000, 0.000, 15:42:28.711, 1587847348711
123, 131.97, -290.84, 31.95, -16.91, 0.000, 0.000, 0.000, 15:42:28.727, 1587847348727
124, 5.79, -416.46, -84.09, -21.73, 0.000, 0.000, 0.000, 15:42:28.727, 1587847348727
125, 241.75, -197.67, 135.54, 68.43, 0.000, 0.000, 0.000, 15:42:28.727, 1587847348727
126, 220.33, -210.41, 114.75, 23.28, 0.000, 0.000, 0.000, 15:42:28.727, 1587847348727
127, -3.25, -426.39, -98.99, -41.74, 0.000, 0.000, 0.000, 15:42:28.741, 1587847348741
128, 156.79, -279.74, 47.04, 46.05, 0.000, 0.000, 0.000, 15:42:28.741, 1587847348741
129, 279.19, -161.23, 166.06, 51.78, 0.000, 0.000, 0.000, 15:42:28.756, 1587847348756
130, 47.82, -376.81, -44.92, -40.24, 0.000, 0.000, 0.000, 15:42:28.756, 1587847348756
131, 79.18, -346.66, -28.09, 10.73, 0.000, 0.000, 0.000, 15:42:28.757, 1587847348757
132, 282.17, -150.19, 174.91, 70.96, 0.000, 0.000, 0.000, 15:42:28.757, 1587847348757
133, 123.93, -308.08, 16.47, -11.48, 0.000, 0.000, 0.000, 15:42:28.772, 1587847348772
134, 18.63, -401.73, -83.36, -23.59, 0.000, 0.000, 0.000, 15:42:28.772, 1587847348772
135, 238.61, -187.36, 133.81, 69.38, 0.000, 0.000, 0.000, 15:42:28.787, 1587847348787
136, 213.28, -221.68, 90.83, 19.11, 0.000, 0.000, 0.000, 15:42:28.787, 1587847348787
137, 28.20, -406.30, -87.39, -41.31, 0.000, 0.000, 0.000, 15:42:28.788, 1587847348788
138, 145.97, -277.24, 50.50, 45.90, 0.000, 0.000, 0.000, 15:42:28.788, 1587847348788
139, 264.20, -170.68, 143.64, 51.12, 0.000, 0.000, 0.000, 15:42:28.802, 1587847348802
140, 35.49, -385.51, -56.83, -38.34, 0.000, 0.000, 0.000, 15:42:28.802, 1587847348802
141, 64.23, -360.72, -33.78, 13.53, 0.000, 0.000, 0.000, 15:42:28.817, 1587847348817
142, 278.64, -143.79, 185.92, 77.77, 0.000, 0.000, 0.000, 15:42:28.817, 1587847348817
143, 134.05, -293.48, 34.58, -16.69, 0.000, 0.000, 0.000, 15:42:28.823, 1587847348823
144, 15.98, -403.66, -76.29, -23.26, 0.000, 0.000, 0.000, 15:42:28.823, 1587847348823
145, 236.99, -190.32, 128.41, 68.87, 0.000, 0.000, 0.000, 15:42:28.831, 1587847348831
146, 211.62, -208.64, 110.47, 19.48, 0.000, 0.000, 0.000, 15:42:28.831, 1587847348831
147, -8.10, -427.93, -100.43, -40.71, 0.000, 0.000, 0.000, 15:42:28.848, 1587847348848
148, 151.35, -271.34, 48.91, 44.37, 0.000, 0.000, 0.000, 15:42:28.848, 1587847348848
149, 259.85, -160.92, 162.68, 54.01, 0.000, 0.000, 0.000, 15:42:28.849, 1587847348849
150, 60.00, -368.00, -43.27, -39.35, 0.000, 0.000, 0.000, 15:42:28.849, 1587847348849
151, 89.60, -339.49, -21.89, 5.70, 0.000, 0.000, 0.000, 15:42:28.861, 1587847348861
152, 280.85, -139.90, 179.32, 71.17, 0.000, 0.000, 0.000, 15:42:28.861, 1587847348861
153, 125.52, -295.33, 26.39, -18.46, 0.000, 0.000, 0.000, 15:42:28.877, 1587847348877
154, 5.89, -406.52, -90.08, -23.28, 0.000, 0.000, 0.000, 15:42:28.877, 1587847348877
155, 237.11, -179.61, 137.28, 73.51, 0.000, 0.000, 0.000, 15:42:28.878, 1587847348878
156, 217.03, -202.41, 109.14, 21.28, 0.000, 0.000, 0.000, 15:42:28.878, 1587847348878
157, 5.13, -405.20, -92.66, -42.04, 0.000, 0.000, 0.000, 15:42:28.892, 1587847348892
158, 158.19, -258.09, 65.98, 55.34, 0.000, 0.000, 0.000, 15:42:28.892, 1587847348892
159, 263.24, -153.36, 187.10, 59.96, 0.000, 0.000, 0.000, 15:42:28.907, 1587847348907
160, 66.05, -361.85, -47.44, -38.16, 0.000, 0.000, 0.000, 15:42:28.907, 1587847348907
161, 56.32, -352.30, -28.41, 11.00, 0.000, 0.000, 0.000, 15:42:28.908, 1587847348908
162, 278.11, -133.44, 195.19, 74.47, 0.000, 0.000, 0.000, 15:42:28.908, 1587847348908
163, 148.64, -275.26, 24.93, -6.82, 0.000, 0.000, 0.000, 15:42:28.921, 1587847348921
164, 8.12, -395.87, -84.48, -21.29, 0.000, 0.000, 0.000, 15:42:28.921, 1587847348921
165, 241.19, -170.55, 146.05, 75.11, 0.000, 0.000, 0.000, 15:42:28.937, 1587847348937
166, 223.87, -184.08, 132.49, 24.91, 0.000, 0.000, 0.000, 15:42:28.937, 1587847348937
167, 6.04, -396.09, -75.32, -39.09, 0.000, 0.000, 0.000, 15:42:28.938, 1587847348938
168, 143.59, -257.92, 40.60, 52.50, 0.000, 0.000, 0.000, 15:42:28.938, 1587847348938
169, 252.53, -145.39, 157.93, 55.63, 0.000, 0.000, 0.000, 15:42:28.954, 1587847348954
170, 62.98, -329.35, -20.83, -32.58, 0.000, 0.000, 0.000, 15:42:28.954, 1587847348954
171, 46.76, -336.47, -19.51, 13.34, 0.000, 0.000, 0.000, 15:42:28.966, 1587847348966
172, 257.39, -128.42, 184.25, 80.86, 0.000, 0.000, 0.000, 15:42:28.966, 1587847348966
173, 141.53, -251.18, 57.97, -6.78, 0.000, 0.000, 0.000, 15:42:28.967, 1587847348967
174, -23.74, -388.47, -64.75, -19.88, 0.000, 0.000, 0.000, 15:42:28.967, 1587847348967
175, 226.71, -162.03, 148.10, 73.61, 0.000, 0.000, 0.000, 15:42:28.981, 1587847348981
176, 216.83, -173.11, 133.74, 28.21, 0.000, 0.000, 0.000, 15:42:28.981, 1587847348981
177, -19.59, -400.81, -95.48, -42.09, 0.000, 0.000, 0.000, 15:42:28.997, 1587847348997
178, 141.95, -242.15, 64.06, 52.99, 0.000, 0.000, 0.000, 15:42:28.997, 1587847348997
179, 260.29, -134.91, 172.87, 61.16, 0.000, 0.000, 0.000, 15:42:28.998, 1587847348998
180, 22.97, -345.97, -21.68, -34.06, 0.000, 0.000, 0.000, 15:42:28.998, 1587847348998
181, 37.91, -339.64, -28.18, 11.30, 0.000, 0.000, 0.000, 15:42:29.011, 1587847349011
182, 246.99, -138.91, 175.99, 70.94, 0.000, 0.000, 0.000, 15:42:29.011, 1587847349011
183, 130.37, -258.48, 55.88, -16.16, 0.000, 0.000, 0.000, 15:42:29.027, 1587847349027
184, 21.70, -373.71, -90.37, -26.83, 0.000, 0.000, 0.000, 15:42:29.027, 1587847349027
185, 214.40, -172.96, 136.67, 75.29, 0.000, 0.000, 0.000, 15:42:29.028, 1587847349028
186, 224.23, -167.12, 142.21, 23.63, 0.000, 0.000, 0.000, 15:42:29.028, 1587847349028
187, -5.62, -401.73, -93.52, -40.56, 0.000, 0.000, 0.000, 15:42:29.041, 1587847349041
188, 146.83, -249.81, 67.34, 43.07, 0.000, 0.000, 0.000, 15:42:29.041, 1587847349041
189, 254.34, -144.22, 166.30, 54.85, 0.000, 0.000, 0.000, 15:42:29.057, 1587847349057
190, 31.45, -358.94, -48.04, -35.20, 0.000, 0.000, 0.000, 15:42:29.057, 1587847349057
191, 62.32, -317.05, 4.24, 10.37, 0.000, 0.000, 0.000, 15:42:29.058, 1587847349058
192, 250.40, -135.54, 182.47, 75.11, 0.000, 0.000, 0.000, 15:42:29.058, 1587847349058
193, 114.42, -271.34, 45.52, -14.64, 0.000, 0.000, 0.000, 15:42:29.071, 1587847349071
194, -5.91, -385.63, -78.50, -23.35, 0.000, 0.000, 0.000, 15:42:29.071, 1587847349071
195, 221.54, -167.85, 144.30, 70.02, 0.000, 0.000, 0.000, 15:42:29.088, 1587847349088
196, 188.76, -201.18, 115.97, 25.29, 0.000, 0.000, 0.000, 15:42:29.088, 1587847349088
197, 25.06, -358.23, -47.87, -44.66, 0.000, 0.000, 0.000, 15:42:29.120, 1587847349120
198, 133.67, -246.90, 45.33, 46.05, 0.000, 0.000, 0.000, 15:42:29.120, 1587847349120
199, 265.98, -118.00, 188.22, 52.12, 0.000, 0.000, 0.000, 15:42:29.122, 1587847349122
200, 40.82, -337.21, -54.77, -34.50, 0.000, 0.000, 0.000, 15:42:29.122, 1587847349122
0, 57.66, -313.85, -32.58, 4.78, 0.000, 0.000, 0.000, 15:42:29.122, 1587847349122
1, 278.15, -96.34, 183.84, 73.41, 0.000, 0.000, 0.000, 15:42:29.123, 1587847349123
