%OpenBCI Raw EEG Data
%Number of channels = 4
%Sample Rate = 200.0 Hz
%First Column = SampleIndex
%Last Column = Timestamp 
%Other Columns = EEG data in microvolts followed by Accel Data (in G) interleaved with Aux Data
0, 95.06, -283.33, 127.90, 8.06, 0.000, 0.000, 0.000, 15:37:09.175, 1587847029175
1, 84.15, -299.99, 103.84, 10.74, 0.000, 0.000, 0.000, 15:37:09.190, 1587847029190
2, 110.10, -266.72, 119.39, 22.13, 0.000, 0.000, 0.000, 15:37:09.190, 1587847029190
3, 110.93, -257.12, 138.34, 16.66, 0.000, 0.000, 0.000, 15:37:09.204, 1587847029204
4, 81.32, -291.87, 101.04, -0.33, 0.000, 0.000, 0.000, 15:37:09.204, 1587847029204
5, 88.15, -291.50, 96.87, 19.71, 0.000, 0.000, 0.000, 15:37:09.220, 1587847029220
6, 141.62, -241.05, 158.01, 25.97, 0.000, 0.000, 0.000, 15:37:09.220, 1587847029220
7, 90.84, -289.62, 117.84, -1.85, 0.000, 0.000, 0.000, 15:37:09.221, 1587847029221
8, 74.03, -304.60, 78.24, 8.44, 0.000, 0.000, 0.000, 15:37:09.221, 1587847029221
9, 116.19, -260.45, 137.40, 29.30, 0.000, 0.000, 0.000, 15:37:09.235, 1587847029235
10, 115.01, -268.92, 127.48, 7.50, 0.000, 0.000, 0.000, 15:37:09.235, 1587847029235
11, 49.17, -342.91, 53.93, -4.75, 0.000, 0.000, 0.000, 15:37:09.236, 1587847029236
12, 95.92, -293.27, 102.71, 31.74, 0.000, 0.000, 0.000, 15:37:09.236, 1587847029236
13, 166.56, -215.03, 179.20, 35.71, 0.000, 0.000, 0.000, 15:37:09.248, 1587847029248
14, 43.89, -331.46, 68.13, -12.76, 0.000, 0.000, 0.000, 15:37:09.248, 1587847029248
15, -17.26, -391.38, 15.31, -2.91, 0.000, 0.000, 0.000, 15:37:09.265, 1587847029265
16, 183.82, -202.46, 205.51, 60.33, 0.000, 0.000, 0.000, 15:37:09.265, 1587847029265
17, 130.62, -248.74, 156.26, 8.09, 0.000, 0.000, 0.000, 15:37:09.267, 1587847029267
18, -38.85, -422.43, -30.90, -32.51, 0.000, 0.000, 0.000, 15:37:09.267, 1587847029267
19, 138.32, -251.03, 149.27, 47.70, 0.000, 0.000, 0.000, 15:37:09.279, 1587847029279
20, 217.63, -165.80, 218.16, 40.17, 0.000, 0.000, 0.000, 15:37:09.279, 1587847029279
21, 2.53, -368.12, 11.07, -38.50, 0.000, 0.000, 0.000, 15:37:09.296, 1587847029296
22, 55.02, -327.09, 59.46, 19.19, 0.000, 0.000, 0.000, 15:37:09.296, 1587847029296
23, 241.36, -152.89, 251.72, 57.90, 0.000, 0.000, 0.000, 15:37:09.300, 1587847029300
24, 65.21, -318.37, 68.09, -23.64, 0.000, 0.000, 0.000, 15:37:09.300, 1587847029300
25, -18.77, -399.22, -10.45, -12.21, 0.000, 0.000, 0.000, 15:37:09.309, 1587847029309
26, 216.17, -172.36, 212.97, 64.58, 0.000, 0.000, 0.000, 15:37:09.309, 1587847029309
27, 150.36, -248.48, 147.83, 10.34, 0.000, 0.000, 0.000, 15:37:09.326, 1587847029326
28, -53.98, -432.54, -42.08, -36.72, 0.000, 0.000, 0.000, 15:37:09.326, 1587847029326
29, 143.67, -230.62, 141.01, 49.40, 0.000, 0.000, 0.000, 15:37:09.331, 1587847029331
30, 232.62, -155.74, 219.93, 45.87, 0.000, 0.000, 0.000, 15:37:09.331, 1587847029331
31, 6.56, -389.78, -15.75, -38.48, 0.000, 0.000, 0.000, 15:37:09.339, 1587847029339
32, 56.38, -338.07, 49.81, 23.16, 0.000, 0.000, 0.000, 15:37:09.339, 1587847029339
33, 261.44, -130.52, 243.33, 64.41, 0.000, 0.000, 0.000, 15:37:09.355, 1587847029355
34, 78.01, -311.65, 64.80, -24.32, 0.000, 0.000, 0.000, 15:37:09.355, 1587847029355
35, -4.78, -396.00, -21.67, -11.31, 0.000, 0.000, 0.000, 15:37:09.356, 1587847029356
36, 230.07, -175.59, 208.38, 65.24, 0.000, 0.000, 0.000, 15:37:09.356, 1587847029356
37, 167.06, -220.58, 147.88, 12.61, 0.000, 0.000, 0.000, 15:37:09.385, 1587847029385
38, -44.84, -428.47, -50.50, -37.21, 0.000, 0.000, 0.000, 15:37:09.385, 1587847029385
39, 153.10, -226.31, 147.08, 51.05, 0.000, 0.000, 0.000, 15:37:09.386, 1587847029386
40, 221.75, -155.34, 220.56, 39.56, 0.000, 0.000, 0.000, 15:37:09.386, 1587847029386
41, -1.61, -382.02, -0.87, -39.18, 0.000, 0.000, 0.000, 15:37:09.387, 1587847029387
42, 56.11, -334.96, 43.93, 21.08, 0.000, 0.000, 0.000, 15:37:09.387, 1587847029387
43, 261.75, -126.61, 243.27, 63.68, 0.000, 0.000, 0.000, 15:37:09.399, 1587847029399
44, 79.36, -310.93, 64.75, -21.31, 0.000, 0.000, 0.000, 15:37:09.399, 1587847029399
45, -12.16, -390.88, -20.89, -12.00, 0.000, 0.000, 0.000, 15:37:09.415, 1587847029415
46, 215.57, -161.07, 216.77, 66.17, 0.000, 0.000, 0.000, 15:37:09.415, 1587847029415
47, 145.41, -227.82, 156.22, 7.51, 0.000, 0.000, 0.000, 15:37:09.417, 1587847029417
48, -43.53, -415.89, -40.82, -38.78, 0.000, 0.000, 0.000, 15:37:09.417, 1587847029417
49, 144.43, -215.72, 146.81, 50.68, 0.000, 0.000, 0.000, 15:37:09.429, 1587847029429
50, 240.70, -137.45, 219.00, 43.46, 0.000, 0.000, 0.000, 15:37:09.429, 1587847029429
51, -3.39, -376.38, -18.97, -38.71, 0.000, 0.000, 0.000, 15:37:09.445, 1587847029445
52, 59.04, -325.22, 39.55, 18.19, 0.000, 0.000, 0.000, 15:37:09.445, 1587847029445
53, 272.25, -127.88, 237.88, 60.03, 0.000, 0.000, 0.000, 15:37:09.446, 1587847029446
54, 91.98, -301.00, 57.63, -26.83, 0.000, 0.000, 0.000, 15:37:09.446, 1587847029446
55, -2.08, -385.09, -34.23, -16.06, 0.000, 0.000, 0.000, 15:37:09.459, 1587847029459
56, 240.73, -149.67, 212.29, 63.21, 0.000, 0.000, 0.000, 15:37:09.459, 1587847029459
57, 183.00, -208.39, 150.67, 7.17, 0.000, 0.000, 0.000, 15:37:09.475, 1587847029475
58, -23.84, -414.42, -58.60, -39.61, 0.000, 0.000, 0.000, 15:37:09.475, 1587847029475
59, 162.32, -236.59, 120.61, 46.08, 0.000, 0.000, 0.000, 15:37:09.476, 1587847029476
60, 258.78, -146.34, 221.76, 38.21, 0.000, 0.000, 0.000, 15:37:09.476, 1587847029476
61, -4.83, -393.36, -35.55, -44.28, 0.000, 0.000, 0.000, 15:37:09.489, 1587847029489
62, 72.57, -319.65, 39.62, 18.78, 0.000, 0.000, 0.000, 15:37:09.489, 1587847029489
63, 260.62, -131.22, 232.23, 64.90, 0.000, 0.000, 0.000, 15:37:09.505, 1587847029505
64, 87.24, -292.90, 66.00, -25.63, 0.000, 0.000, 0.000, 15:37:09.505, 1587847029505
65, 0.15, -370.27, -11.45, -10.97, 0.000, 0.000, 0.000, 15:37:09.506, 1587847029506
66, 244.55, -136.20, 224.16, 83.26, 0.000, 0.000, 0.000, 15:37:09.506, 1587847029506
67, 195.14, -201.26, 154.67, 14.72, 0.000, 0.000, 0.000, 15:37:09.519, 1587847029519
68, -21.80, -402.47, -34.27, -31.64, 0.000, 0.000, 0.000, 15:37:09.519, 1587847029519
69, 152.17, -225.59, 141.43, 58.09, 0.000, 0.000, 0.000, 15:37:09.535, 1587847029535
70, 247.54, -132.68, 229.64, 45.45, 0.000, 0.000, 0.000, 15:37:09.535, 1587847029535
71, -2.60, -371.99, -23.88, -37.53, 0.000, 0.000, 0.000, 15:37:09.537, 1587847029537
72, 56.30, -314.19, 37.81, 25.11, 0.000, 0.000, 0.000, 15:37:09.537, 1587847029537
73, 278.02, -105.36, 251.81, 70.10, 0.000, 0.000, 0.000, 15:37:09.549, 1587847029549
74, 85.40, -290.27, 61.79, -20.96, 0.000, 0.000, 0.000, 15:37:09.549, 1587847029549
75, -13.85, -381.58, -30.10, -12.50, 0.000, 0.000, 0.000, 15:37:09.567, 1587847029567
76, 222.70, -158.74, 201.81, 64.02, 0.000, 0.000, 0.000, 15:37:09.567, 1587847029567
77, 175.09, -211.34, 151.75, 10.34, 0.000, 0.000, 0.000, 15:37:09.569, 1587847029569
78, -17.30, -394.55, -46.42, -35.60, 0.000, 0.000, 0.000, 15:37:09.569, 1587847029569
79, 156.63, -227.99, 134.64, 54.85, 0.000, 0.000, 0.000, 15:37:09.597, 1587847029597
80, 256.30, -136.28, 225.88, 36.15, 0.000, 0.000, 0.000, 15:37:09.597, 1587847029597
81, -0.33, -382.33, -26.04, -38.92, 0.000, 0.000, 0.000, 15:37:09.597, 1587847029597
82, 58.13, -313.13, 32.95, 17.21, 0.000, 0.000, 0.000, 15:37:09.597, 1587847029597
83, 267.33, -108.11, 245.69, 67.02, 0.000, 0.000, 0.000, 15:37:09.598, 1587847029598
84, 76.58, -282.43, 70.80, -14.69, 0.000, 0.000, 0.000, 15:37:09.598, 1587847029598
85, 7.50, -375.24, -19.63, -4.27, 0.000, 0.000, 0.000, 15:37:09.609, 1587847029609
86, 248.59, -152.33, 203.28, 76.20, 0.000, 0.000, 0.000, 15:37:09.609, 1587847029609
87, 184.37, -203.08, 151.68, 13.47, 0.000, 0.000, 0.000, 15:37:09.625, 1587847029625
88, -21.52, -403.10, -54.75, -29.62, 0.000, 0.000, 0.000, 15:37:09.625, 1587847029625
89, 169.31, -212.08, 140.16, 60.11, 0.000, 0.000, 0.000, 15:37:09.625, 1587847029625
90, 251.57, -138.59, 216.49, 49.44, 0.000, 0.000, 0.000, 15:37:09.625, 1587847029625
91, 14.33, -374.26, -18.96, -34.69, 0.000, 0.000, 0.000, 15:37:09.638, 1587847029638
92, 69.09, -315.14, 46.67, 25.92, 0.000, 0.000, 0.000, 15:37:09.638, 1587847029638
93, 263.07, -125.09, 234.08, 68.92, 0.000, 0.000, 0.000, 15:37:09.655, 1587847029655
94, 93.64, -287.73, 46.25, -19.95, 0.000, 0.000, 0.000, 15:37:09.655, 1587847029655
95, 2.75, -379.38, -39.31, -10.27, 0.000, 0.000, 0.000, 15:37:09.656, 1587847029656
96, 242.14, -150.22, 201.22, 68.08, 0.000, 0.000, 0.000, 15:37:09.656, 1587847029656
97, 183.65, -212.47, 139.24, 12.59, 0.000, 0.000, 0.000, 15:37:09.671, 1587847029671
98, -11.41, -413.75, -61.92, -31.43, 0.000, 0.000, 0.000, 15:37:09.671, 1587847029671
99, 175.00, -219.59, 118.37, 50.42, 0.000, 0.000, 0.000, 15:37:09.684, 1587847029684
100, 256.93, -135.51, 203.73, 47.52, 0.000, 0.000, 0.000, 15:37:09.684, 1587847029684
101, 28.14, -367.69, -22.88, -37.42, 0.000, 0.000, 0.000, 15:37:09.685, 1587847029685
102, 79.61, -318.29, 30.95, 23.22, 0.000, 0.000, 0.000, 15:37:09.685, 1587847029685
103, 274.88, -124.81, 225.85, 66.06, 0.000, 0.000, 0.000, 15:37:09.698, 1587847029698
104, 105.71, -293.23, 42.82, -23.16, 0.000, 0.000, 0.000, 15:37:09.698, 1587847029698
105, 10.22, -379.35, -39.49, -5.07, 0.000, 0.000, 0.000, 15:37:09.714, 1587847029714
106, 245.28, -135.81, 210.03, 73.09, 0.000, 0.000, 0.000, 15:37:09.714, 1587847029714
107, 184.47, -201.81, 145.16, 17.55, 0.000, 0.000, 0.000, 15:37:09.715, 1587847029715
108, -10.29, -393.55, -48.47, -30.36, 0.000, 0.000, 0.000, 15:37:09.715, 1587847029715
109, 158.47, -221.22, 128.20, 57.28, 0.000, 0.000, 0.000, 15:37:09.729, 1587847029729
110, 245.29, -142.96, 209.16, 42.85, 0.000, 0.000, 0.000, 15:37:09.729, 1587847029729
111, 15.85, -366.32, -18.23, -34.61, 0.000, 0.000, 0.000, 15:37:09.744, 1587847029744
112, 79.31, -319.24, 43.91, 22.53, 0.000, 0.000, 0.000, 15:37:09.744, 1587847029744
113, 276.86, -116.58, 229.46, 64.99, 0.000, 0.000, 0.000, 15:37:09.745, 1587847029745
114, 84.25, -295.67, 52.16, -27.09, 0.000, 0.000, 0.000, 15:37:09.745, 1587847029745
115, 3.40, -381.00, -29.89, -12.56, 0.000, 0.000, 0.000, 15:37:09.759, 1587847029759
116, 246.56, -146.08, 211.88, 71.64, 0.000, 0.000, 0.000, 15:37:09.759, 1587847029759
117, 182.31, -214.24, 132.22, 6.70, 0.000, 0.000, 0.000, 15:37:09.774, 1587847029774
118, -18.47, -409.21, -54.86, -34.26, 0.000, 0.000, 0.000, 15:37:09.774, 1587847029774
119, 153.15, -224.67, 138.88, 50.82, 0.000, 0.000, 0.000, 15:37:09.775, 1587847029775
120, 237.55, -144.44, 211.32, 40.93, 0.000, 0.000, 0.000, 15:37:09.775, 1587847029775
121, 16.05, -363.78, -23.88, -32.99, 0.000, 0.000, 0.000, 15:37:09.789, 1587847029789
122, 78.28, -303.73, 42.86, 22.93, 0.000, 0.000, 0.000, 15:37:09.789, 1587847029789
123, 279.35, -116.71, 237.17, 65.05, 0.000, 0.000, 0.000, 15:37:09.805, 1587847029805
124, 89.82, -303.15, 48.94, -21.66, 0.000, 0.000, 0.000, 15:37:09.805, 1587847029805
125, 2.01, -383.08, -33.65, -11.23, 0.000, 0.000, 0.000, 15:37:09.806, 1587847029806
126, 250.94, -154.99, 204.05, 72.51, 0.000, 0.000, 0.000, 15:37:09.806, 1587847029806
127, 184.95, -212.12, 150.91, 12.18, 0.000, 0.000, 0.000, 15:37:09.818, 1587847029818
128, -22.56, -401.98, -49.91, -32.49, 0.000, 0.000, 0.000, 15:37:09.818, 1587847029818
129, 167.39, -228.96, 137.60, 55.10, 0.000, 0.000, 0.000, 15:37:09.834, 1587847029834
130, 259.33, -130.01, 224.19, 45.37, 0.000, 0.000, 0.000, 15:37:09.834, 1587847029834
131, 16.47, -361.77, -18.26, -34.34, 0.000, 0.000, 0.000, 15:37:09.835, 1587847029835
132, 76.54, -314.07, 36.78, 21.68, 0.000, 0.000, 0.000, 15:37:09.835, 1587847029835
133, 288.93, -110.38, 247.62, 65.40, 0.000, 0.000, 0.000, 15:37:09.849, 1587847029849
134, 94.77, -294.63, 53.54, -23.46, 0.000, 0.000, 0.000, 15:37:09.849, 1587847029849
135, -2.04, -372.10, -21.09, -14.65, 0.000, 0.000, 0.000, 15:37:09.864, 1587847029864
136, 251.47, -139.60, 219.55, 72.20, 0.000, 0.000, 0.000, 15:37:09.864, 1587847029864
137, 195.02, -197.26, 152.32, 17.65, 0.000, 0.000, 0.000, 15:37:09.866, 1587847029866
138, 1.97, -393.32, -45.50, -34.03, 0.000, 0.000, 0.000, 15:37:09.866, 1587847029866
139, 173.32, -212.32, 135.63, 59.77, 0.000, 0.000, 0.000, 15:37:09.879, 1587847029879
140, 268.81, -118.90, 224.93, 49.34, 0.000, 0.000, 0.000, 15:37:09.879, 1587847029879
141, 28.04, -359.64, -21.49, -38.14, 0.000, 0.000, 0.000, 15:37:09.895, 1587847029895
142, 77.98, -311.90, 31.20, 24.11, 0.000, 0.000, 0.000, 15:37:09.895, 1587847029895
143, 284.40, -107.09, 245.51, 70.46, 0.000, 0.000, 0.000, 15:37:09.896, 1587847029896
144, 100.46, -285.42, 60.06, -21.94, 0.000, 0.000, 0.000, 15:37:09.896, 1587847029896
145, 7.77, -383.68, -31.12, -17.18, 0.000, 0.000, 0.000, 15:37:09.909, 1587847029909
146, 247.23, -138.82, 209.07, 69.87, 0.000, 0.000, 0.000, 15:37:09.909, 1587847029909
147, 193.50, -206.23, 141.45, 6.14, 0.000, 0.000, 0.000, 15:37:09.925, 1587847029925
148, -16.69, -413.15, -64.69, -37.87, 0.000, 0.000, 0.000, 15:37:09.925, 1587847029925
149, 163.22, -221.88, 121.73, 49.79, 0.000, 0.000, 0.000, 15:37:09.927, 1587847029927
150, 259.87, -141.24, 207.93, 36.20, 0.000, 0.000, 0.000, 15:37:09.927, 1587847029927
151, 14.87, -354.68, -13.33, -40.87, 0.000, 0.000, 0.000, 15:37:09.939, 1587847029939
152, 81.83, -298.66, 46.26, 20.20, 0.000, 0.000, 0.000, 15:37:09.939, 1587847029939
153, 283.57, -108.64, 236.06, 65.16, 0.000, 0.000, 0.000, 15:37:09.955, 1587847029955
154, 94.41, -297.56, 49.57, -22.55, 0.000, 0.000, 0.000, 15:37:09.955, 1587847029955
155, 0.49, -380.12, -31.16, -11.81, 0.000, 0.000, 0.000, 15:37:09.957, 1587847029957
156, 265.38, -133.50, 213.69, 67.48, 0.000, 0.000, 0.000, 15:37:09.957, 1587847029957
157, 176.23, -210.26, 137.98, 5.47, 0.000, 0.000, 0.000, 15:37:09.970, 1587847029970
158, -19.96, -400.86, -57.55, -38.62, 0.000, 0.000, 0.000, 15:37:09.970, 1587847029970
159, 179.77, -204.32, 133.26, 48.35, 0.000, 0.000, 0.000, 15:37:09.986, 1587847029986
160, 268.86, -132.27, 215.77, 42.15, 0.000, 0.000, 0.000, 15:37:09.986, 1587847029986
161, 18.73, -367.58, -16.58, -38.12, 0.000, 0.000, 0.000, 15:37:10.001, 1587847030001
162, 87.60, -300.29, 48.96, 17.96, 0.000, 0.000, 0.000, 15:37:10.001, 1587847030001
163, 283.23, -101.43, 240.83, 66.36, 0.000, 0.000, 0.000, 15:37:10.003, 1587847030003
164, 94.53, -291.87, 51.32, -24.83, 0.000, 0.000, 0.000, 15:37:10.003, 1587847030003
165, 6.73, -370.06, -33.45, -15.97, 0.000, 0.000, 0.000, 15:37:10.015, 1587847030015
166, 255.19, -134.66, 209.19, 66.86, 0.000, 0.000, 0.000, 15:37:10.015, 1587847030015
167, 191.31, -186.50, 148.90, 7.16, 0.000, 0.000, 0.000, 15:37:10.017, 1587847030017
168, -15.41, -402.93, -62.41, -38.03, 0.000, 0.000, 0.000, 15:37:10.017, 1587847030017
169, 166.24, -215.12, 132.07, 52.32, 0.000, 0.000, 0.000, 15:37:10.029, 1587847030029
170, 259.61, -120.30, 223.10, 39.57, 0.000, 0.000, 0.000, 15:37:10.029, 1587847030029
171, 23.80, -354.65, -21.06, -43.47, 0.000, 0.000, 0.000, 15:37:10.045, 1587847030045
172, 77.47, -302.23, 28.17, 15.87, 0.000, 0.000, 0.000, 15:37:10.045, 1587847030045
173, 289.51, -96.98, 240.30, 62.11, 0.000, 0.000, 0.000, 15:37:10.046, 1587847030046
174, 100.30, -279.34, 56.00, -24.19, 0.000, 0.000, 0.000, 15:37:10.046, 1587847030046
175, 13.16, -364.76, -30.02, -11.94, 0.000, 0.000, 0.000, 15:37:10.058, 1587847030058
176, 260.22, -122.70, 219.35, 64.25, 0.000, 0.000, 0.000, 15:37:10.058, 1587847030058
177, 200.86, -188.17, 148.88, 10.42, 0.000, 0.000, 0.000, 15:37:10.074, 1587847030074
178, -3.71, -392.89, -60.42, -34.20, 0.000, 0.000, 0.000, 15:37:10.074, 1587847030074
179, 182.04, -206.75, 130.89, 56.89, 0.000, 0.000, 0.000, 15:37:10.075, 1587847030075
180, 265.84, -122.26, 218.80, 42.99, 0.000, 0.000, 0.000, 15:37:10.075, 1587847030075
181, 27.19, -353.12, -18.03, -40.48, 0.000, 0.000, 0.000, 15:37:10.089, 1587847030089
182, 90.68, -288.87, 37.73, 23.51, 0.000, 0.000, 0.000, 15:37:10.089, 1587847030089
183, 281.60, -103.25, 236.59, 69.14, 0.000, 0.000, 0.000, 15:37:10.105, 1587847030105
184, 101.66, -281.47, 57.69, -20.23, 0.000, 0.000, 0.000, 15:37:10.105, 1587847030105
185, 9.41, -369.95, -29.59, -13.72, 0.000, 0.000, 0.000, 15:37:10.106, 1587847030106
186, 250.79, -137.25, 204.66, 67.76, 0.000, 0.000, 0.000, 15:37:10.106, 1587847030106
187, 205.00, -185.15, 143.61, 8.77, 0.000, 0.000, 0.000, 15:37:10.118, 1587847030118
188, 5.43, -376.47, -39.13, -37.19, 0.000, 0.000, 0.000, 15:37:10.118, 1587847030118
189, 175.07, -207.96, 129.52, 56.95, 0.000, 0.000, 0.000, 15:37:10.151, 1587847030151
190, 255.93, -119.39, 217.69, 42.88, 0.000, 0.000, 0.000, 15:37:10.151, 1587847030151
191, 23.00, -357.62, -21.73, -42.20, 0.000, 0.000, 0.000, 15:37:10.156, 1587847030156
192, 74.95, -291.70, 48.59, 21.74, 0.000, 0.000, 0.000, 15:37:10.156, 1587847030156
193, 300.42, -90.13, 252.43, 67.99, 0.000, 0.000, 0.000, 15:37:10.156, 1587847030156
194, 116.74, -284.15, 51.60, -22.29, 0.000, 0.000, 0.000, 15:37:10.156, 1587847030156
195, 18.59, -367.52, -31.65, -11.59, 0.000, 0.000, 0.000, 15:37:10.158, 1587847030158
196, 267.32, -125.04, 217.77, 71.49, 0.000, 0.000, 0.000, 15:37:10.158, 1587847030158
197, 202.94, -177.28, 150.15, 11.86, 0.000, 0.000, 0.000, 15:37:10.167, 1587847030167
198, -10.38, -386.91, -57.12, -37.31, 0.000, 0.000, 0.000, 15:37:10.167, 1587847030167
199, 180.02, -203.91, 133.42, 57.98, 0.000, 0.000, 0.000, 15:37:10.180, 1587847030180
200, 259.97, -125.15, 216.44, 46.03, 0.000, 0.000, 0.000, 15:37:10.180, 1587847030180
0, 32.43, -359.58, -16.91, -42.16, 0.000, 0.000, 0.000, 15:37:10.186, 1587847030186
1, 85.87, -299.37, 40.50, 18.43, 0.000, 0.000, 0.000, 15:37:10.193, 1587847030193
2, 299.46, -92.70, 255.18, 71.76, 0.000, 0.000, 0.000, 15:37:10.193, 1587847030193
3, 103.58, -292.49, 46.45, -22.53, 0.000, 0.000, 0.000, 15:37:10.210, 1587847030210
4, 9.39, -376.12, -29.48, -15.17, 0.000, 0.000, 0.000, 15:37:10.210, 1587847030210
5, 255.47, -129.22, 202.78, 73.25, 0.000, 0.000, 0.000, 15:37:10.215, 1587847030215
6, 179.44, -192.82, 145.33, 11.92, 0.000, 0.000, 0.000, 15:37:10.215, 1587847030215
7, -11.56, -392.27, -50.72, -33.27, 0.000, 0.000, 0.000, 15:37:10.223, 1587847030223
8, 186.69, -203.53, 141.18, 54.73, 0.000, 0.000, 0.000, 15:37:10.223, 1587847030223
9, 265.93, -120.75, 216.50, 42.74, 0.000, 0.000, 0.000, 15:37:10.239, 1587847030239
10, 25.39, -352.64, -24.46, -41.99, 0.000, 0.000, 0.000, 15:37:10.239, 1587847030239
11, 75.84, -301.30, 40.68, 25.00, 0.000, 0.000, 0.000, 15:37:10.241, 1587847030241
12, 289.85, -104.61, 243.77, 63.90, 0.000, 0.000, 0.000, 15:37:10.241, 1587847030241
13, 104.27, -275.12, 60.92, -23.18, 0.000, 0.000, 0.000, 15:37:10.256, 1587847030256
14, 9.22, -367.10, -32.50, -11.13, 0.000, 0.000, 0.000, 15:37:10.256, 1587847030256
15, 260.80, -137.89, 211.26, 73.84, 0.000, 0.000, 0.000, 15:37:10.269, 1587847030269
16, 202.48, -196.52, 141.95, 6.94, 0.000, 0.000, 0.000, 15:37:10.269, 1587847030269
17, -16.49, -392.76, -55.83, -33.54, 0.000, 0.000, 0.000, 15:37:10.270, 1587847030270
18, 181.08, -199.84, 141.87, 55.57, 0.000, 0.000, 0.000, 15:37:10.270, 1587847030270
19, 259.84, -123.78, 221.87, 46.07, 0.000, 0.000, 0.000, 15:37:10.286, 1587847030286
20, 15.62, -365.04, -17.20, -39.73, 0.000, 0.000, 0.000, 15:37:10.286, 1587847030286
21, 78.34, -301.21, 41.07, 22.84, 0.000, 0.000, 0.000, 15:37:10.299, 1587847030299
22, 287.38, -105.53, 245.45, 63.06, 0.000, 0.000, 0.000, 15:37:10.299, 1587847030299
23, 95.32, -289.75, 61.56, -19.39, 0.000, 0.000, 0.000, 15:37:10.300, 1587847030300
24, 9.07, -377.40, -35.81, -13.15, 0.000, 0.000, 0.000, 15:37:10.300, 1587847030300
25, 261.83, -131.09, 212.69, 73.33, 0.000, 0.000, 0.000, 15:37:10.318, 1587847030318
26, 206.75, -202.73, 152.34, 15.74, 0.000, 0.000, 0.000, 15:37:10.318, 1587847030318
27, -5.86, -395.91, -53.45, -38.14, 0.000, 0.000, 0.000, 15:37:10.329, 1587847030329
28, 184.14, -216.22, 134.82, 52.67, 0.000, 0.000, 0.000, 15:37:10.329, 1587847030329
29, 260.77, -137.55, 217.42, 42.57, 0.000, 0.000, 0.000, 15:37:10.331, 1587847030331
30, 13.58, -371.54, -18.04, -37.04, 0.000, 0.000, 0.000, 15:37:10.331, 1587847030331
31, 72.18, -307.40, 46.31, 16.67, 0.000, 0.000, 0.000, 15:37:10.346, 1587847030346
32, 288.80, -105.50, 253.75, 67.43, 0.000, 0.000, 0.000, 15:37:10.346, 1587847030346
33, 89.59, -301.10, 49.89, -22.43, 0.000, 0.000, 0.000, 15:37:10.360, 1587847030360
34, 15.02, -380.52, -29.72, -11.86, 0.000, 0.000, 0.000, 15:37:10.360, 1587847030360
35, 247.61, -147.68, 209.87, 69.05, 0.000, 0.000, 0.000, 15:37:10.360, 1587847030360
36, 199.41, -196.45, 161.92, 2.81, 0.000, 0.000, 0.000, 15:37:10.360, 1587847030360
37, -17.00, -400.20, -57.74, -38.50, 0.000, 0.000, 0.000, 15:37:10.373, 1587847030373
38, 168.77, -209.42, 144.15, 55.20, 0.000, 0.000, 0.000, 15:37:10.373, 1587847030373
39, 266.04, -135.59, 223.43, 45.62, 0.000, 0.000, 0.000, 15:37:10.390, 1587847030390
40, 27.70, -374.35, -18.62, -38.69, 0.000, 0.000, 0.000, 15:37:10.390, 1587847030390
41, 79.56, -307.56, 47.75, 19.55, 0.000, 0.000, 0.000, 15:37:10.391, 1587847030391
42, 285.28, -104.29, 249.58, 68.39, 0.000, 0.000, 0.000, 15:37:10.391, 1587847030391
43, 94.91, -297.77, 55.87, -23.34, 0.000, 0.000, 0.000, 15:37:10.403, 1587847030403
44, 13.94, -376.70, -21.91, -13.74, 0.000, 0.000, 0.000, 15:37:10.403, 1587847030403
45, 247.87, -146.71, 208.98, 73.33, 0.000, 0.000, 0.000, 15:37:10.421, 1587847030421
46, 181.58, -210.17, 149.46, 4.49, 0.000, 0.000, 0.000, 15:37:10.421, 1587847030421
47, -22.09, -404.85, -50.43, -36.28, 0.000, 0.000, 0.000, 15:37:10.423, 1587847030423
48, 182.79, -224.03, 140.16, 53.84, 0.000, 0.000, 0.000, 15:37:10.423, 1587847030423
49, 263.12, -133.13, 223.64, 41.61, 0.000, 0.000, 0.000, 15:37:10.433, 1587847030433
50, 4.63, -369.43, -14.18, -42.76, 0.000, 0.000, 0.000, 15:37:10.433, 1587847030433
51, 81.49, -309.89, 42.74, 20.54, 0.000, 0.000, 0.000, 15:37:10.449, 1587847030449
52, 286.41, -104.64, 243.04, 69.95, 0.000, 0.000, 0.000, 15:37:10.449, 1587847030449
53, 103.30, -291.94, 51.50, -24.75, 0.000, 0.000, 0.000, 15:37:10.451, 1587847030451
54, 5.09, -378.69, -25.29, -14.17, 0.000, 0.000, 0.000, 15:37:10.451, 1587847030451
55, 263.96, -135.29, 223.57, 68.87, 0.000, 0.000, 0.000, 15:37:10.466, 1587847030466
56, 188.68, -202.05, 163.30, 13.01, 0.000, 0.000, 0.000, 15:37:10.466, 1587847030466
57, -23.96, -406.80, -54.37, -37.64, 0.000, 0.000, 0.000, 15:37:10.496, 1587847030496
58, 175.46, -225.07, 133.28, 54.47, 0.000, 0.000, 0.000, 15:37:10.496, 1587847030496
59, 265.79, -131.73, 227.91, 45.32, 0.000, 0.000, 0.000, 15:37:10.497, 1587847030497
60, 27.48, -358.86, -13.09, -39.72, 0.000, 0.000, 0.000, 15:37:10.497, 1587847030497
61, 74.83, -311.47, 39.76, 20.90, 0.000, 0.000, 0.000, 15:37:10.498, 1587847030498
62, 282.76, -99.13, 259.84, 66.87, 0.000, 0.000, 0.000, 15:37:10.498, 1587847030498
63, 92.89, -296.49, 49.22, -24.72, 0.000, 0.000, 0.000, 15:37:10.499, 1587847030499
64, 3.62, -387.07, -31.60, -13.50, 0.000, 0.000, 0.000, 15:37:10.499, 1587847030499
65, 265.11, -123.67, 237.34, 71.52, 0.000, 0.000, 0.000, 15:37:10.509, 1587847030509
66, 190.44, -206.13, 153.18, 9.32, 0.000, 0.000, 0.000, 15:37:10.509, 1587847030509
67, -33.45, -408.71, -50.52, -39.58, 0.000, 0.000, 0.000, 15:37:10.523, 1587847030523
68, 180.15, -210.34, 145.16, 57.08, 0.000, 0.000, 0.000, 15:37:10.523, 1587847030523
69, 272.28, -129.73, 231.94, 48.10, 0.000, 0.000, 0.000, 15:37:10.539, 1587847030539
70, 12.27, -381.64, -18.97, -40.85, 0.000, 0.000, 0.000, 15:37:10.539, 1587847030539
71, 85.29, -306.96, 49.17, 21.47, 0.000, 0.000, 0.000, 15:37:10.540, 1587847030540
72, 289.81, -106.10, 243.04, 69.15, 0.000, 0.000, 0.000, 15:37:10.540, 1587847030540
73, 104.26, -287.19, 64.89, -24.16, 0.000, 0.000, 0.000, 15:37:10.553, 1587847030553
74, 9.50, -365.75, -13.29, -13.23, 0.000, 0.000, 0.000, 15:37:10.553, 1587847030553
75, 245.41, -136.53, 218.12, 72.33, 0.000, 0.000, 0.000, 15:37:10.569, 1587847030569
76, 189.01, -196.82, 153.62, 14.09, 0.000, 0.000, 0.000, 15:37:10.569, 1587847030569
77, -26.46, -393.98, -49.09, -35.38, 0.000, 0.000, 0.000, 15:37:10.570, 1587847030570
78, 178.03, -213.68, 137.16, 59.47, 0.000, 0.000, 0.000, 15:37:10.570, 1587847030570
79, 269.70, -129.93, 222.95, 43.57, 0.000, 0.000, 0.000, 15:37:10.584, 1587847030584
80, 28.91, -365.58, -11.92, -42.95, 0.000, 0.000, 0.000, 15:37:10.584, 1587847030584
81, 81.29, -306.89, 40.33, 23.56, 0.000, 0.000, 0.000, 15:37:10.600, 1587847030600
82, 289.52, -98.79, 243.54, 70.13, 0.000, 0.000, 0.000, 15:37:10.600, 1587847030600
83, 92.76, -291.90, 56.93, -22.02, 0.000, 0.000, 0.000, 15:37:10.603, 1587847030603
84, 2.59, -377.02, -22.89, -9.61, 0.000, 0.000, 0.000, 15:37:10.603, 1587847030603
85, 238.49, -146.53, 213.58, 72.17, 0.000, 0.000, 0.000, 15:37:10.613, 1587847030613
86, 187.59, -199.44, 158.70, 11.83, 0.000, 0.000, 0.000, 15:37:10.614, 1587847030614
87, -29.73, -400.76, -58.81, -35.89, 0.000, 0.000, 0.000, 15:37:10.629, 1587847030629
88, 172.10, -213.32, 146.53, 53.97, 0.000, 0.000, 0.000, 15:37:10.629, 1587847030629
89, 263.83, -122.43, 221.48, 43.38, 0.000, 0.000, 0.000, 15:37:10.630, 1587847030630
90, 19.43, -364.50, -18.02, -38.07, 0.000, 0.000, 0.000, 15:37:10.630, 1587847030630
91, 70.08, -311.61, 34.31, 22.59, 0.000, 0.000, 0.000, 15:37:10.663, 1587847030663
92, 284.71, -99.17, 253.83, 69.11, 0.000, 0.000, 0.000, 15:37:10.663, 1587847030663
93, 98.85, -293.56, 55.47, -20.73, 0.000, 0.000, 0.000, 15:37:10.665, 1587847030665
94, -2.87, -378.89, -24.99, -13.26, 0.000, 0.000, 0.000, 15:37:10.665, 1587847030665
95, 233.85, -139.21, 214.40, 73.41, 0.000, 0.000, 0.000, 15:37:10.666, 1587847030666
96, 191.72, -203.01, 151.65, 11.50, 0.000, 0.000, 0.000, 15:37:10.666, 1587847030666
97, -14.93, -403.08, -46.81, -39.38, 0.000, 0.000, 0.000, 15:37:10.675, 1587847030675
98, 169.74, -211.18, 151.10, 53.30, 0.000, 0.000, 0.000, 15:37:10.675, 1587847030675
99, 262.55, -131.51, 223.81, 41.58, 0.000, 0.000, 0.000, 15:37:10.692, 1587847030692
100, 14.18, -365.65, -14.79, -37.12, 0.000, 0.000, 0.000, 15:37:10.692, 1587847030692
101, 76.14, -306.39, 56.46, 26.61, 0.000, 0.000, 0.000, 15:37:10.693, 1587847030693
102, 289.56, -101.82, 260.85, 68.04, 0.000, 0.000, 0.000, 15:37:10.693, 1587847030693
103, 90.08, -294.23, 64.11, -26.54, 0.000, 0.000, 0.000, 15:37:10.703, 1587847030703
104, 16.18, -377.77, -25.24, -10.33, 0.000, 0.000, 0.000, 15:37:10.703, 1587847030703
105, 247.07, -147.21, 213.63, 72.14, 0.000, 0.000, 0.000, 15:37:10.721, 1587847030721
106, 193.23, -201.56, 156.72, 7.24, 0.000, 0.000, 0.000, 15:37:10.721, 1587847030721
107, -18.36, -416.90, -53.22, -32.71, 0.000, 0.000, 0.000, 15:37:10.722, 1587847030722
108, 181.80, -209.73, 149.21, 54.39, 0.000, 0.000, 0.000, 15:37:10.722, 1587847030722
109, 250.55, -139.27, 224.93, 40.66, 0.000, 0.000, 0.000, 15:37:10.733, 1587847030733
110, 22.83, -359.71, -16.82, -40.53, 0.000, 0.000, 0.000, 15:37:10.733, 1587847030733
111, 69.96, -302.32, 43.04, 23.85, 0.000, 0.000, 0.000, 15:37:10.750, 1587847030750
112, 273.29, -107.27, 248.89, 63.96, 0.000, 0.000, 0.000, 15:37:10.750, 1587847030750
113, 94.34, -287.85, 61.38, -28.39, 0.000, 0.000, 0.000, 15:37:10.754, 1587847030754
114, 6.91, -380.59, -26.21, -12.38, 0.000, 0.000, 0.000, 15:37:10.754, 1587847030754
115, 244.84, -154.23, 218.46, 69.00, 0.000, 0.000, 0.000, 15:37:10.763, 1587847030763
116, 202.77, -184.68, 165.25, 6.54, 0.000, 0.000, 0.000, 15:37:10.763, 1587847030763
117, -19.16, -405.00, -54.54, -37.02, 0.000, 0.000, 0.000, 15:37:10.780, 1587847030780
118, 175.43, -213.96, 153.07, 57.14, 0.000, 0.000, 0.000, 15:37:10.780, 1587847030780
119, 250.04, -134.06, 227.74, 43.51, 0.000, 0.000, 0.000, 15:37:10.781, 1587847030781
120, 15.64, -373.32, -10.33, -39.95, 0.000, 0.000, 0.000, 15:37:10.782, 1587847030782
121, 74.12, -309.96, 46.21, 22.49, 0.000, 0.000, 0.000, 15:37:10.795, 1587847030795
122, 286.19, -104.03, 257.97, 71.72, 0.000, 0.000, 0.000, 15:37:10.795, 1587847030795
123, 98.47, -286.16, 70.96, -21.21, 0.000, 0.000, 0.000, 15:37:10.809, 1587847030809
124, -0.52, -387.75, -19.40, -12.86, 0.000, 0.000, 0.000, 15:37:10.809, 1587847030809
125, 246.02, -134.71, 224.13, 75.40, 0.000, 0.000, 0.000, 15:37:10.810, 1587847030810
126, 194.48, -189.66, 167.53, 9.81, 0.000, 0.000, 0.000, 15:37:10.810, 1587847030810
127, -31.83, -410.51, -50.90, -36.52, 0.000, 0.000, 0.000, 15:37:10.824, 1587847030824
128, 162.19, -219.42, 152.02, 50.80, 0.000, 0.000, 0.000, 15:37:10.824, 1587847030824
129, 250.42, -134.18, 225.38, 40.87, 0.000, 0.000, 0.000, 15:37:10.839, 1587847030839
130, 9.22, -369.47, 1.18, -39.67, 0.000, 0.000, 0.000, 15:37:10.839, 1587847030839
131, 72.20, -309.69, 59.46, 22.36, 0.000, 0.000, 0.000, 15:37:10.840, 1587847030840
132, 280.84, -103.67, 266.13, 64.61, 0.000, 0.000, 0.000, 15:37:10.840, 1587847030840
133, 88.25, -306.94, 68.48, -25.15, 0.000, 0.000, 0.000, 15:37:10.854, 1587847030854
134, 4.71, -379.58, -13.95, -13.75, 0.000, 0.000, 0.000, 15:37:10.854, 1587847030854
135, 232.10, -132.31, 225.71, 71.38, 0.000, 0.000, 0.000, 15:37:10.869, 1587847030869
136, 184.44, -188.52, 164.84, 8.43, 0.000, 0.000, 0.000, 15:37:10.869, 1587847030869
137, -13.66, -397.55, -45.99, -39.68, 0.000, 0.000, 0.000, 15:37:10.885, 1587847030885
138, 169.29, -213.59, 147.67, 54.91, 0.000, 0.000, 0.000, 15:37:10.885, 1587847030885
139, 254.63, -132.59, 230.45, 43.73, 0.000, 0.000, 0.000, 15:37:10.885, 1587847030885
140, 10.81, -359.25, -1.48, -38.92, 0.000, 0.000, 0.000, 15:37:10.885, 1587847030885
141, 70.15, -312.69, 47.44, 22.05, 0.000, 0.000, 0.000, 15:37:10.900, 1587847030900
142, 291.38, -107.11, 253.72, 64.02, 0.000, 0.000, 0.000, 15:37:10.900, 1587847030900
143, 102.39, -296.55, 54.29, -21.02, 0.000, 0.000, 0.000, 15:37:10.900, 1587847030900
144, 13.15, -372.00, -20.63, -11.71, 0.000, 0.000, 0.000, 15:37:10.900, 1587847030900
145, 254.31, -134.92, 223.78, 67.39, 0.000, 0.000, 0.000, 15:37:10.914, 1587847030914
146, 194.04, -202.75, 166.30, 8.67, 0.000, 0.000, 0.000, 15:37:10.914, 1587847030914
147, -27.21, -405.16, -39.98, -29.81, 0.000, 0.000, 0.000, 15:37:10.930, 1587847030930
148, 166.62, -212.12, 139.79, 60.94, 0.000, 0.000, 0.000, 15:37:10.930, 1587847030930
149, 272.60, -116.88, 232.54, 47.27, 0.000, 0.000, 0.000, 15:37:10.932, 1587847030932
150, 28.31, -360.66, 1.89, -35.91, 0.000, 0.000, 0.000, 15:37:10.932, 1587847030932
151, 67.38, -315.95, 45.70, 19.95, 0.000, 0.000, 0.000, 15:37:10.945, 1587847030945
152, 291.79, -105.95, 259.79, 70.89, 0.000, 0.000, 0.000, 15:37:10.945, 1587847030945
153, 104.12, -277.69, 66.83, -25.48, 0.000, 0.000, 0.000, 15:37:10.960, 1587847030960
154, 29.31, -353.46, -5.09, -10.31, 0.000, 0.000, 0.000, 15:37:10.960, 1587847030960
155, 241.15, -139.73, 209.83, 74.02, 0.000, 0.000, 0.000, 15:37:10.962, 1587847030962
156, 187.03, -213.57, 154.77, 5.50, 0.000, 0.000, 0.000, 15:37:10.962, 1587847030962
157, 36.69, -351.39, -20.24, -40.98, 0.000, 0.000, 0.000, 15:37:10.974, 1587847030974
158, 149.74, -234.06, 112.44, 53.74, 0.000, 0.000, 0.000, 15:37:10.974, 1587847030974
159, 301.82, -78.84, 229.62, 38.90, 0.000, 0.000, 0.000, 15:37:10.990, 1587847030990
160, 21.63, -345.04, -39.08, -42.91, 0.000, 0.000, 0.000, 15:37:10.990, 1587847030990
161, 68.73, -331.88, 20.73, 23.61, 0.000, 0.000, 0.000, 15:37:10.991, 1587847030991
162, 357.88, -42.32, 241.95, 67.46, 0.000, 0.000, 0.000, 15:37:10.991, 1587847030991
163, 57.48, -302.61, -20.69, -23.06, 0.000, 0.000, 0.000, 15:37:11.004, 1587847031004
164, -0.78, -386.19, -56.83, -13.60, 0.000, 0.000, 0.000, 15:37:11.004, 1587847031004
165, 274.33, -125.51, 308.97, 68.79, 0.000, 0.000, 0.000, 15:37:11.020, 1587847031020
166, 237.25, -192.27, 106.94, 6.69, 0.000, 0.000, 0.000, 15:37:11.020, 1587847031020
167, -9.25, -377.05, 17.07, -35.28, 0.000, 0.000, 0.000, 15:37:11.021, 1587847031021
168, 157.00, -261.53, 126.35, 56.98, 0.000, 0.000, 0.000, 15:37:11.021, 1587847031021
169, 104.75, -260.67, 181.97, 39.65, 0.000, 0.000, 0.000, 15:37:11.034, 1587847031034
170, -37.82, -393.55, 6.33, -40.13, 0.000, 0.000, 0.000, 15:37:11.034, 1587847031034
171, 38.16, -324.65, 77.96, 20.15, 0.000, 0.000, 0.000, 15:37:11.050, 1587847031050
172, 262.39, -116.97, 290.26, 67.45, 0.000, 0.000, 0.000, 15:37:11.050, 1587847031050
173, 103.52, -268.19, 109.80, -21.43, 0.000, 0.000, 0.000, 15:37:11.052, 1587847031052
174, 100.89, -270.71, -40.51, -13.79, 0.000, 0.000, 0.000, 15:37:11.052, 1587847031052
175, 391.16, -21.75, 307.82, 77.70, 0.000, 0.000, 0.000, 15:37:11.065, 1587847031065
176, 259.83, -47.35, 285.61, 11.40, 0.000, 0.000, 0.000, 15:37:11.065, 1587847031065
177, 50.83, -414.02, -109.24, -40.96, 0.000, 0.000, 0.000, 15:37:11.080, 1587847031080
178, 159.35, -254.89, 13.12, 58.69, 0.000, 0.000, 0.000, 15:37:11.080, 1587847031080
179, 188.03, -237.83, 296.37, 44.99, 0.000, 0.000, 0.000, 15:37:11.082, 1587847031082
180, -195.96, -475.35, -14.48, -40.59, 0.000, 0.000, 0.000, 15:37:11.082, 1587847031082
181, 31.90, -339.17, 103.72, 20.03, 0.000, 0.000, 0.000, 15:37:11.095, 1587847031095
182, 176.11, -166.00, 297.12, 66.49, 0.000, 0.000, 0.000, 15:37:11.095, 1587847031095
183, 146.16, -234.47, 157.78, -24.90, 0.000, 0.000, 0.000, 15:37:11.109, 1587847031109
184, -94.78, -445.60, 17.55, -15.72, 0.000, 0.000, 0.000, 15:37:11.109, 1587847031109
185, 431.46, 83.83, 302.93, 72.32, 0.000, 0.000, 0.000, 15:37:11.112, 1587847031112
186, 59.73, -404.43, 104.18, 13.57, 0.000, 0.000, 0.000, 15:37:11.112, 1587847031112
187, 122.99, -241.86, 14.61, -34.92, 0.000, 0.000, 0.000, 15:37:11.124, 1587847031124
188, 150.53, -252.67, 230.12, 58.38, 0.000, 0.000, 0.000, 15:37:11.124, 1587847031124
189, 4.65, -258.17, 215.27, 41.92, 0.000, 0.000, 0.000, 15:37:11.142, 1587847031142
190, -45.40, -377.42, -24.74, -38.68, 0.000, 0.000, 0.000, 15:37:11.142, 1587847031142
191, 34.65, -310.02, 220.12, 21.50, 0.000, 0.000, 0.000, 15:37:11.144, 1587847031144
192, 150.85, -221.77, 173.42, 65.05, 0.000, 0.000, 0.000, 15:37:11.144, 1587847031144
193, 6.55, -380.62, 106.81, -20.22, 0.000, 0.000, 0.000, 15:37:11.154, 1587847031154
194, -49.91, -401.36, 36.83, -16.02, 0.000, 0.000, 0.000, 15:37:11.154, 1587847031154
195, 247.40, -91.40, 316.87, 69.77, 0.000, 0.000, 0.000, 15:37:11.170, 1587847031170
196, 302.00, -50.94, 142.06, 13.15, 0.000, 0.000, 0.000, 15:37:11.170, 1587847031170
197, -190.53, -534.44, 58.32, -38.84, 0.000, 0.000, 0.000, 15:37:11.172, 1587847031172
198, 136.45, -219.41, 162.86, 57.83, 0.000, 0.000, 0.000, 15:37:11.172, 1587847031172
199, 167.01, -190.29, 337.54, 43.37, 0.000, 0.000, 0.000, 15:37:11.185, 1587847031185
200, -178.86, -490.56, -1.42, -39.88, 0.000, 0.000, 0.000, 15:37:11.185, 1587847031185
0, 93.42, -256.96, 109.46, 25.47, 0.000, 0.000, 0.000, 15:37:11.186, 1587847031186
1, 285.23, -174.27, 298.58, 70.01, 0.000, 0.000, 0.000, 15:37:11.199, 1587847031199
2, -36.22, -366.13, 121.19, -24.72, 0.000, 0.000, 0.000, 15:37:11.199, 1587847031199
3, -68.26, -395.99, 1.01, -15.63, 0.000, 0.000, 0.000, 15:37:11.214, 1587847031214
4, 266.00, -99.56, 253.15, 73.51, 0.000, 0.000, 0.000, 15:37:11.214, 1587847031214
5, 127.71, -242.26, 192.83, 11.80, 0.000, 0.000, 0.000, 15:37:11.216, 1587847031216
6, -38.72, -422.28, 94.82, -37.69, 0.000, 0.000, 0.000, 15:37:11.216, 1587847031216
7, 105.96, -231.40, 166.00, 55.81, 0.000, 0.000, 0.000, 15:37:11.229, 1587847031229
8, 231.45, -130.46, 273.98, 45.77, 0.000, 0.000, 0.000, 15:37:11.229, 1587847031229
9, 22.88, -386.32, 26.15, -39.27, 0.000, 0.000, 0.000, 15:37:11.245, 1587847031245
10, -68.20, -403.48, 99.63, 22.53, 0.000, 0.000, 0.000, 15:37:11.245, 1587847031245
11, 269.47, -111.09, 260.40, 62.68, 0.000, 0.000, 0.000, 15:37:11.248, 1587847031248
12, -20.50, -382.20, 110.43, -22.29, 0.000, 0.000, 0.000, 15:37:11.248, 1587847031248
13, -75.84, -420.60, 75.11, -15.23, 0.000, 0.000, 0.000, 15:37:11.261, 1587847031261
14, 176.95, -164.86, 237.31, 68.92, 0.000, 0.000, 0.000, 15:37:11.261, 1587847031261
15, 162.44, -186.90, 224.08, 9.41, 0.000, 0.000, 0.000, 15:37:11.275, 1587847031275
16, -33.92, -397.35, 24.36, -34.95, 0.000, 0.000, 0.000, 15:37:11.275, 1587847031275
17, 110.92, -262.82, 158.28, 60.93, 0.000, 0.000, 0.000, 15:37:11.276, 1587847031276
18, 197.19, -176.87, 309.49, 43.24, 0.000, 0.000, 0.000, 15:37:11.276, 1587847031276
19, 7.86, -357.20, 55.23, -41.10, 0.000, 0.000, 0.000, 15:37:11.289, 1587847031289
20, 7.22, -348.31, 70.56, 22.17, 0.000, 0.000, 0.000, 15:37:11.289, 1587847031289
21, 235.45, -129.52, 322.29, 65.80, 0.000, 0.000, 0.000, 15:37:11.305, 1587847031305
22, 44.21, -337.71, 99.41, -23.28, 0.000, 0.000, 0.000, 15:37:11.305, 1587847031305
23, -37.93, -389.03, 18.49, -14.90, 0.000, 0.000, 0.000, 15:37:11.305, 1587847031305
24, 208.53, -181.76, 198.63, 69.32, 0.000, 0.000, 0.000, 15:37:11.305, 1587847031305
25, 186.17, -185.90, 214.84, 13.19, 0.000, 0.000, 0.000, 15:37:11.319, 1587847031319
26, -66.73, -448.19, 7.89, -40.58, 0.000, 0.000, 0.000, 15:37:11.319, 1587847031319
27, 109.30, -274.16, 232.74, 54.22, 0.000, 0.000, 0.000, 15:37:11.334, 1587847031334
28, 229.49, -147.32, 283.55, 43.87, 0.000, 0.000, 0.000, 15:37:11.334, 1587847031334
29, -32.97, -411.26, 28.84, -38.64, 0.000, 0.000, 0.000, 15:37:11.335, 1587847031335
30, 60.89, -324.59, 74.64, 22.51, 0.000, 0.000, 0.000, 15:37:11.335, 1587847031335
31, 261.03, -117.47, 226.71, 69.35, 0.000, 0.000, 0.000, 15:37:11.349, 1587847031349
32, 115.69, -292.60, 74.71, -21.49, 0.000, 0.000, 0.000, 15:37:11.349, 1587847031349
33, -74.41, -403.99, 82.57, -12.45, 0.000, 0.000, 0.000, 15:37:11.365, 1587847031365
34, 228.38, -159.45, 224.67, 72.61, 0.000, 0.000, 0.000, 15:37:11.365, 1587847031365
35, 174.30, -198.13, 284.76, 12.39, 0.000, 0.000, 0.000, 15:37:11.366, 1587847031366
36, -75.58, -470.39, -46.85, -35.57, 0.000, 0.000, 0.000, 15:37:11.366, 1587847031366
37, 122.87, -253.14, 157.07, 57.50, 0.000, 0.000, 0.000, 15:37:11.379, 1587847031379
38, 209.17, -173.13, 265.01, 41.08, 0.000, 0.000, 0.000, 15:37:11.379, 1587847031379
39, 63.42, -342.86, 46.93, -39.56, 0.000, 0.000, 0.000, 15:37:11.395, 1587847031395
40, 57.21, -316.83, 59.15, 23.51, 0.000, 0.000, 0.000, 15:37:11.395, 1587847031395
41, 256.92, -128.78, 307.85, 68.23, 0.000, 0.000, 0.000, 15:37:11.396, 1587847031396
42, 78.83, -319.83, 49.77, -27.45, 0.000, 0.000, 0.000, 15:37:11.396, 1587847031396
43, -8.18, -372.20, 29.33, -18.64, 0.000, 0.000, 0.000, 15:37:11.409, 1587847031409
44, 228.97, -157.45, 239.62, 72.45, 0.000, 0.000, 0.000, 15:37:11.409, 1587847031409
45, 183.05, -225.05, 129.99, 11.16, 0.000, 0.000, 0.000, 15:37:11.441, 1587847031441
46, -36.74, -413.85, 19.48, -34.85, 0.000, 0.000, 0.000, 15:37:11.441, 1587847031441
47, 99.73, -292.35, 138.43, 56.02, 0.000, 0.000, 0.000, 15:37:11.442, 1587847031442
48, 226.37, -153.87, 303.76, 42.99, 0.000, 0.000, 0.000, 15:37:11.442, 1587847031442
49, 0.31, -374.63, 31.96, -46.33, 0.000, 0.000, 0.000, 15:37:11.442, 1587847031442
50, 99.39, -282.43, 54.57, 23.10, 0.000, 0.000, 0.000, 15:37:11.442, 1587847031442
51, 258.66, -137.67, 258.81, 65.88, 0.000, 0.000, 0.000, 15:37:11.443, 1587847031443
52, 85.52, -312.23, 146.92, -22.18, 0.000, 0.000, 0.000, 15:37:11.443, 1587847031443
53, 39.10, -352.62, -62.47, -16.42, 0.000, 0.000, 0.000, 15:37:11.454, 1587847031454
54, 202.81, -211.42, 236.31, 71.18, 0.000, 0.000, 0.000, 15:37:11.454, 1587847031454
55, 147.17, -218.65, 266.68, 12.97, 0.000, 0.000, 0.000, 15:37:11.469, 1587847031469
56, -5.63, -427.72, -79.23, -38.38, 0.000, 0.000, 0.000, 15:37:11.469, 1587847031469
57, 160.63, -227.05, 188.02, 53.94, 0.000, 0.000, 0.000, 15:37:11.484, 1587847031484
58, 246.72, -128.04, 185.13, 44.16, 0.000, 0.000, 0.000, 15:37:11.484, 1587847031484
59, 31.22, -375.34, 51.77, -39.39, 0.000, 0.000, 0.000, 15:37:11.485, 1587847031485
60, 28.75, -381.57, 86.31, 23.58, 0.000, 0.000, 0.000, 15:37:11.485, 1587847031485
61, 222.62, -174.94, 291.49, 68.31, 0.000, 0.000, 0.000, 15:37:11.499, 1587847031499
62, 113.63, -292.13, 153.04, -25.53, 0.000, 0.000, 0.000, 15:37:11.499, 1587847031499
63, 47.66, -353.27, -61.24, -6.31, 0.000, 0.000, 0.000, 15:37:11.514, 1587847031514
64, 241.97, -162.21, 245.18, 74.88, 0.000, 0.000, 0.000, 15:37:11.514, 1587847031514
65, 186.10, -174.10, 260.02, 15.51, 0.000, 0.000, 0.000, 15:37:11.515, 1587847031515
66, -16.28, -397.36, -134.48, -31.59, 0.000, 0.000, 0.000, 15:37:11.515, 1587847031515
67, 114.32, -310.55, 160.50, 52.99, 0.000, 0.000, 0.000, 15:37:11.530, 1587847031530
68, 272.61, -120.40, 295.33, 49.16, 0.000, 0.000, 0.000, 15:37:11.530, 1587847031530
69, 7.14, -386.85, -15.54, -32.43, 0.000, 0.000, 0.000, 15:37:11.544, 1587847031544
70, 65.22, -335.05, 41.80, 17.65, 0.000, 0.000, 0.000, 15:37:11.544, 1587847031544
71, 323.36, -95.98, 370.96, 69.76, 0.000, 0.000, 0.000, 15:37:11.545, 1587847031545
72, 42.57, -326.30, -42.44, -27.06, 0.000, 0.000, 0.000, 15:37:11.545, 1587847031545
73, -41.96, -435.06, 69.78, -12.35, 0.000, 0.000, 0.000, 15:37:11.559, 1587847031559
74, 190.03, -179.64, 253.25, 71.10, 0.000, 0.000, 0.000, 15:37:11.559, 1587847031559
75, 174.20, -195.55, 229.07, 7.20, 0.000, 0.000, 0.000, 15:37:11.574, 1587847031574
76, -10.71, -443.50, -72.32, -36.06, 0.000, 0.000, 0.000, 15:37:11.574, 1587847031574
77, 130.00, -240.59, 220.21, 57.77, 0.000, 0.000, 0.000, 15:37:11.575, 1587847031575
78, 244.08, -138.45, 193.48, 41.55, 0.000, 0.000, 0.000, 15:37:11.575, 1587847031575
79, 26.30, -389.39, 6.67, -39.63, 0.000, 0.000, 0.000, 15:37:11.589, 1587847031589
80, 63.73, -291.32, 187.36, 22.38, 0.000, 0.000, 0.000, 15:37:11.589, 1587847031589
81, 292.31, -140.11, 203.88, 72.04, 0.000, 0.000, 0.000, 15:37:11.604, 1587847031604
82, 36.95, -330.07, 126.99, -19.37, 0.000, 0.000, 0.000, 15:37:11.604, 1587847031604
83, 12.23, -352.18, 8.15, -7.81, 0.000, 0.000, 0.000, 15:37:11.605, 1587847031605
84, 213.59, -196.30, 180.31, 70.73, 0.000, 0.000, 0.000, 15:37:11.605, 1587847031605
85, 218.46, -183.16, 176.13, 12.78, 0.000, 0.000, 0.000, 15:37:11.619, 1587847031619
86, -38.21, -447.69, 74.25, -35.96, 0.000, 0.000, 0.000, 15:37:11.619, 1587847031619
87, 152.03, -215.87, 175.43, 53.52, 0.000, 0.000, 0.000, 15:37:11.634, 1587847031634
88, 251.31, -120.95, 140.97, 46.69, 0.000, 0.000, 0.000, 15:37:11.634, 1587847031634
89, -32.12, -395.80, 80.45, -38.75, 0.000, 0.000, 0.000, 15:37:11.636, 1587847031636
90, 27.22, -358.32, 6.86, 24.37, 0.000, 0.000, 0.000, 15:37:11.636, 1587847031636
91, 244.14, -167.39, 316.60, 63.25, 0.000, 0.000, 0.000, 15:37:11.649, 1587847031649
92, 93.49, -279.73, 144.66, -25.99, 0.000, 0.000, 0.000, 15:37:11.649, 1587847031649
93, 3.79, -391.72, -13.07, -13.83, 0.000, 0.000, 0.000, 15:37:11.664, 1587847031664
94, 243.09, -157.87, 221.00, 70.92, 0.000, 0.000, 0.000, 15:37:11.664, 1587847031664
95, 146.22, -220.19, 189.48, 14.48, 0.000, 0.000, 0.000, 15:37:11.666, 1587847031666
96, -20.95, -401.65, -41.90, -39.47, 0.000, 0.000, 0.000, 15:37:11.666, 1587847031666
97, 149.57, -262.36, 125.42, 56.35, 0.000, 0.000, 0.000, 15:37:11.678, 1587847031678
98, 239.18, -141.55, 340.09, 43.75, 0.000, 0.000, 0.000, 15:37:11.678, 1587847031678
99, -31.02, -390.65, 40.00, -40.21, 0.000, 0.000, 0.000, 15:37:11.695, 1587847031695
100, 60.65, -322.93, 70.65, 24.47, 0.000, 0.000, 0.000, 15:37:11.695, 1587847031695
101, 276.92, -147.85, 273.07, 67.52, 0.000, 0.000, 0.000, 15:37:11.696, 1587847031696
102, 85.89, -291.97, 57.20, -22.22, 0.000, 0.000, 0.000, 15:37:11.696, 1587847031696
103, -45.74, -425.59, 49.77, -10.89, 0.000, 0.000, 0.000, 15:37:11.709, 1587847031709
104, 214.87, -163.51, 225.15, 72.08, 0.000, 0.000, 0.000, 15:37:11.709, 1587847031709
105, 242.65, -152.60, 201.96, 7.30, 0.000, 0.000, 0.000, 15:37:11.725, 1587847031725
106, -67.13, -462.96, -43.87, -35.40, 0.000, 0.000, 0.000, 15:37:11.725, 1587847031725
107, 215.87, -182.77, 185.07, 54.87, 0.000, 0.000, 0.000, 15:37:11.726, 1587847031726
108, 178.27, -197.66, 236.86, 42.88, 0.000, 0.000, 0.000, 15:37:11.726, 1587847031726
109, -34.13, -408.77, 15.60, -40.02, 0.000, 0.000, 0.000, 15:37:11.739, 1587847031739
110, 65.49, -309.10, 89.16, 21.48, 0.000, 0.000, 0.000, 15:37:11.739, 1587847031739
111, 296.90, -124.73, 241.05, 68.68, 0.000, 0.000, 0.000, 15:37:11.755, 1587847031755
112, 65.59, -302.40, 160.01, -22.55, 0.000, 0.000, 0.000, 15:37:11.755, 1587847031755
113, 19.26, -392.11, -35.24, -15.92, 0.000, 0.000, 0.000, 15:37:11.770, 1587847031770
114, 225.62, -180.39, 236.50, 74.32, 0.000, 0.000, 0.000, 15:37:11.770, 1587847031770
115, 176.17, -199.75, 201.55, 10.31, 0.000, 0.000, 0.000, 15:37:11.771, 1587847031771
116, -65.98, -444.88, -28.57, -39.29, 0.000, 0.000, 0.000, 15:37:11.771, 1587847031771
117, 169.59, -209.25, 241.50, 53.10, 0.000, 0.000, 0.000, 15:37:11.785, 1587847031785
118, 235.82, -161.65, 253.86, 46.93, 0.000, 0.000, 0.000, 15:37:11.785, 1587847031785
119, 19.12, -379.36, -22.18, -38.56, 0.000, 0.000, 0.000, 15:37:11.786, 1587847031786
120, 59.51, -332.63, 121.01, 25.87, 0.000, 0.000, 0.000, 15:37:11.786, 1587847031786
121, 282.61, -100.46, 272.05, 68.30, 0.000, 0.000, 0.000, 15:37:11.799, 1587847031799
122, 90.96, -308.42, 79.74, -21.24, 0.000, 0.000, 0.000, 15:37:11.799, 1587847031799
123, 27.83, -367.75, 14.19, -11.20, 0.000, 0.000, 0.000, 15:37:11.815, 1587847031815
124, 271.58, -126.50, 235.07, 68.60, 0.000, 0.000, 0.000, 15:37:11.815, 1587847031815
125, 164.99, -207.87, 179.63, 10.25, 0.000, 0.000, 0.000, 15:37:11.815, 1587847031815
126, -78.55, -458.11, 14.86, -37.01, 0.000, 0.000, 0.000, 15:37:11.815, 1587847031815
127, 167.96, -221.85, 192.33, 55.62, 0.000, 0.000, 0.000, 15:37:11.829, 1587847031829
128, 225.74, -150.35, 276.21, 47.53, 0.000, 0.000, 0.000, 15:37:11.829, 1587847031829
129, 54.78, -338.16, -68.00, -35.21, 0.000, 0.000, 0.000, 15:37:11.845, 1587847031845
130, 114.08, -292.22, 73.16, 23.03, 0.000, 0.000, 0.000, 15:37:11.845, 1587847031845
131, 204.24, -189.81, 319.63, 70.49, 0.000, 0.000, 0.000, 15:37:11.849, 1587847031849
132, 55.99, -311.38, 93.48, -23.63, 0.000, 0.000, 0.000, 15:37:11.849, 1587847031849
133, 13.18, -386.69, 45.60, -12.17, 0.000, 0.000, 0.000, 15:37:11.859, 1587847031859
134, 243.02, -144.48, 279.19, 72.03, 0.000, 0.000, 0.000, 15:37:11.859, 1587847031859
135, 184.42, -201.73, 165.14, 12.27, 0.000, 0.000, 0.000, 15:37:11.875, 1587847031875
136, -43.67, -420.35, 27.64, -35.11, 0.000, 0.000, 0.000, 15:37:11.875, 1587847031875
137, 226.51, -197.19, 152.66, 56.81, 0.000, 0.000, 0.000, 15:37:11.877, 1587847031877
138, 212.20, -187.16, 218.71, 45.53, 0.000, 0.000, 0.000, 15:37:11.877, 1587847031877
139, 16.52, -380.39, 44.32, -41.15, 0.000, 0.000, 0.000, 15:37:11.888, 1587847031888
140, 73.56, -308.80, 27.22, 21.47, 0.000, 0.000, 0.000, 15:37:11.888, 1587847031888
141, 218.07, -147.43, 283.97, 69.15, 0.000, 0.000, 0.000, 15:37:11.904, 1587847031904
142, 118.58, -266.27, 84.12, -22.81, 0.000, 0.000, 0.000, 15:37:11.904, 1587847031904
143, -29.74, -418.18, 43.29, -15.27, 0.000, 0.000, 0.000, 15:37:11.905, 1587847031905
144, 228.51, -165.08, 266.17, 71.88, 0.000, 0.000, 0.000, 15:37:11.905, 1587847031905
145, 173.43, -196.25, 174.58, 11.69, 0.000, 0.000, 0.000, 15:37:11.919, 1587847031919
146, -8.53, -409.16, -26.51, -36.97, 0.000, 0.000, 0.000, 15:37:11.919, 1587847031919
147, 212.30, -191.58, 153.71, 56.56, 0.000, 0.000, 0.000, 15:37:11.934, 1587847031934
148, 232.75, -165.49, 217.63, 45.56, 0.000, 0.000, 0.000, 15:37:11.934, 1587847031934
149, -24.48, -428.91, 35.98, -39.27, 0.000, 0.000, 0.000, 15:37:11.935, 1587847031935
150, 64.96, -324.61, 108.12, 19.88, 0.000, 0.000, 0.000, 15:37:11.935, 1587847031935
151, 294.89, -74.61, 255.59, 71.02, 0.000, 0.000, 0.000, 15:37:11.948, 1587847031948
152, 80.25, -307.01, 109.21, -20.35, 0.000, 0.000, 0.000, 15:37:11.948, 1587847031948
153, 29.30, -376.22, 9.22, -16.27, 0.000, 0.000, 0.000, 15:37:11.964, 1587847031964
154, 231.65, -162.36, 216.76, 71.44, 0.000, 0.000, 0.000, 15:37:11.964, 1587847031964
155, 198.43, -224.55, 185.23, 7.97, 0.000, 0.000, 0.000, 15:37:11.964, 1587847031964
156, -40.44, -407.02, -49.43, -37.34, 0.000, 0.000, 0.000, 15:37:11.964, 1587847031964
157, 169.83, -240.57, 199.33, 55.15, 0.000, 0.000, 0.000, 15:37:11.978, 1587847031978
158, 272.56, -124.81, 254.89, 47.04, 0.000, 0.000, 0.000, 15:37:11.978, 1587847031978
159, 12.48, -358.97, 17.62, -39.66, 0.000, 0.000, 0.000, 15:37:11.994, 1587847031994
160, 37.18, -343.98, 69.50, 24.10, 0.000, 0.000, 0.000, 15:37:11.994, 1587847031994
161, 249.00, -138.54, 188.33, 69.83, 0.000, 0.000, 0.000, 15:37:11.996, 1587847031996
162, 159.96, -240.18, 205.72, -27.60, 0.000, 0.000, 0.000, 15:37:11.996, 1587847031996
163, -29.31, -387.14, -121.14, -14.58, 0.000, 0.000, 0.000, 15:37:12.008, 1587847032008
164, 195.41, -204.74, 269.72, 73.11, 0.000, 0.000, 0.000, 15:37:12.008, 1587847032008
165, 148.72, -251.87, 182.80, 8.60, 0.000, 0.000, 0.000, 15:37:12.024, 1587847032024
166, 2.81, -375.05, 42.23, -32.88, 0.000, 0.000, 0.000, 15:37:12.024, 1587847032024
167, 164.89, -238.24, 134.99, 58.11, 0.000, 0.000, 0.000, 15:37:12.025, 1587847032025
168, 261.44, -138.90, 218.87, 43.43, 0.000, 0.000, 0.000, 15:37:12.025, 1587847032025
169, 12.26, -361.28, 26.76, -42.16, 0.000, 0.000, 0.000, 15:37:12.038, 1587847032038
170, 80.94, -313.30, 20.73, 26.44, 0.000, 0.000, 0.000, 15:37:12.038, 1587847032038
171, 262.89, -110.71, 303.00, 72.29, 0.000, 0.000, 0.000, 15:37:12.055, 1587847032055
172, 61.92, -333.55, 76.07, -23.27, 0.000, 0.000, 0.000, 15:37:12.055, 1587847032055
173, 3.56, -361.49, 21.06, -10.94, 0.000, 0.000, 0.000, 15:37:12.056, 1587847032056
174, 239.60, -183.49, 242.35, 74.10, 0.000, 0.000, 0.000, 15:37:12.056, 1587847032056
175, 162.43, -220.88, 164.15, 8.99, 0.000, 0.000, 0.000, 15:37:12.069, 1587847032069
176, 9.51, -383.40, -65.83, -39.48, 0.000, 0.000, 0.000, 15:37:12.069, 1587847032069
177, 138.40, -246.78, 168.51, 60.06, 0.000, 0.000, 0.000, 15:37:12.086, 1587847032086
178, 248.95, -136.72, 281.26, 42.64, 0.000, 0.000, 0.000, 15:37:12.086, 1587847032086
179, -4.96, -386.17, -71.29, -40.99, 0.000, 0.000, 0.000, 15:37:12.087, 1587847032087
180, 57.40, -343.16, 96.76, 22.92, 0.000, 0.000, 0.000, 15:37:12.087, 1587847032087
181, 295.40, -104.13, 238.95, 64.68, 0.000, 0.000, 0.000, 15:37:12.098, 1587847032098
182, 121.34, -299.90, 113.01, -22.10, 0.000, 0.000, 0.000, 15:37:12.098, 1587847032098
183, -75.26, -424.51, -21.18, -13.53, 0.000, 0.000, 0.000, 15:37:12.114, 1587847032114
184, 219.23, -153.23, 276.38, 72.72, 0.000, 0.000, 0.000, 15:37:12.114, 1587847032114
185, 198.34, -184.65, 211.91, 13.27, 0.000, 0.000, 0.000, 15:37:12.117, 1587847032117
186, 16.55, -373.27, -61.08, -35.07, 0.000, 0.000, 0.000, 15:37:12.117, 1587847032117
187, 148.38, -233.88, 119.74, 55.49, 0.000, 0.000, 0.000, 15:37:12.128, 1587847032128
188, 253.96, -171.19, 284.76, 42.63, 0.000, 0.000, 0.000, 15:37:12.128, 1587847032128
189, -32.75, -396.60, 37.55, -39.45, 0.000, 0.000, 0.000, 15:37:12.161, 1587847032161
190, 81.77, -305.42, 70.08, 18.36, 0.000, 0.000, 0.000, 15:37:12.161, 1587847032161
191, 266.23, -112.43, 280.99, 70.28, 0.000, 0.000, 0.000, 15:37:12.161, 1587847032161
192, 82.65, -318.43, 72.97, -23.03, 0.000, 0.000, 0.000, 15:37:12.161, 1587847032161
193, -14.81, -385.83, 29.12, -12.97, 0.000, 0.000, 0.000, 15:37:12.163, 1587847032163
194, 261.07, -123.08, 209.63, 73.04, 0.000, 0.000, 0.000, 15:37:12.163, 1587847032163
195, 186.00, -206.87, 64.11, 9.20, 0.000, 0.000, 0.000, 15:37:12.163, 1587847032163
196, -52.00, -457.31, 68.71, -38.45, 0.000, 0.000, 0.000, 15:37:12.163, 1587847032163
197, 148.80, -252.20, 169.10, 55.74, 0.000, 0.000, 0.000, 15:37:12.173, 1587847032173
198, 255.67, -123.50, 270.44, 43.41, 0.000, 0.000, 0.000, 15:37:12.173, 1587847032173
199, -12.60, -376.23, 2.67, -43.93, 0.000, 0.000, 0.000, 15:37:12.189, 1587847032189
200, 103.89, -296.10, 75.74, 20.96, 0.000, 0.000, 0.000, 15:37:12.189, 1587847032189
0, 247.62, -123.48, 358.19, 65.22, 0.000, 0.000, 0.000, 15:37:12.191, 1587847032191
1, 105.69, -293.70, 53.40, -23.97, 0.000, 0.000, 0.000, 15:37:12.204, 1587847032204
2, 58.26, -358.28, 5.51, -14.25, 0.000, 0.000, 0.000, 15:37:12.204, 1587847032204
3, 235.55, -133.01, 261.90, 73.21, 0.000, 0.000, 0.000, 15:37:12.220, 1587847032220
4, 214.77, -181.74, 233.11, 10.66, 0.000, 0.000, 0.000, 15:37:12.220, 1587847032220
5, 25.79, -365.09, 3.85, -32.83, 0.000, 0.000, 0.000, 15:37:12.224, 1587847032224
6, 198.86, -176.94, 189.62, 56.57, 0.000, 0.000, 0.000, 15:37:12.224, 1587847032224
7, 316.00, -77.72, 256.47, 42.57, 0.000, 0.000, 0.000, 15:37:12.234, 1587847032234
8, 63.38, -328.92, 57.24, -32.28, 0.000, 0.000, 0.000, 15:37:12.234, 1587847032234
9, 90.13, -236.54, 146.87, 22.56, 0.000, 0.000, 0.000, 15:37:12.250, 1587847032250
10, 285.31, -86.59, 270.82, 71.61, 0.000, 0.000, 0.000, 15:37:12.250, 1587847032250
11, 146.79, -231.10, 71.79, -20.80, 0.000, 0.000, 0.000, 15:37:12.251, 1587847032251
12, 39.34, -339.10, 52.19, -9.69, 0.000, 0.000, 0.000, 15:37:12.251, 1587847032251
13, 254.60, -122.39, 217.44, 69.59, 0.000, 0.000, 0.000, 15:37:12.264, 1587847032264
14, 204.23, -162.87, 192.74, 8.67, 0.000, 0.000, 0.000, 15:37:12.264, 1587847032264
15, 3.47, -342.68, 11.07, -35.43, 0.000, 0.000, 0.000, 15:37:12.280, 1587847032280
16, 162.99, -187.13, 150.95, 57.06, 0.000, 0.000, 0.000, 15:37:12.280, 1587847032280
17, 286.09, -71.29, 244.69, 43.54, 0.000, 0.000, 0.000, 15:37:12.283, 1587847032283
18, 116.95, -306.19, -31.91, -38.85, 0.000, 0.000, 0.000, 15:37:12.284, 1587847032284
19, 66.40, -277.08, 38.08, 21.02, 0.000, 0.000, 0.000, 15:37:12.294, 1587847032294
20, 338.96, -91.51, 304.32, 71.51, 0.000, 0.000, 0.000, 15:37:12.294, 1587847032294
21, 4.41, -321.27, 89.68, -24.84, 0.000, 0.000, 0.000, 15:37:12.310, 1587847032310
22, -13.49, -385.75, -14.65, -11.89, 0.000, 0.000, 0.000, 15:37:12.310, 1587847032310
23, 235.07, -147.12, 239.73, 71.82, 0.000, 0.000, 0.000, 15:37:12.327, 1587847032327
24, 164.36, -202.42, 180.43, 8.82, 0.000, 0.000, 0.000, 15:37:12.327, 1587847032327
25, -8.50, -391.38, -28.71, -33.13, 0.000, 0.000, 0.000, 15:37:12.328, 1587847032328
26, 151.53, -211.15, 150.73, 55.38, 0.000, 0.000, 0.000, 15:37:12.328, 1587847032328
27, 254.54, -128.72, 245.77, 45.67, 0.000, 0.000, 0.000, 15:37:12.340, 1587847032340
28, 16.29, -364.83, 23.28, -39.30, 0.000, 0.000, 0.000, 15:37:12.340, 1587847032340
29, 40.40, -325.88, 55.46, 21.23, 0.000, 0.000, 0.000, 15:37:12.340, 1587847032340
30, 261.87, -131.03, 266.95, 68.16, 0.000, 0.000, 0.000, 15:37:12.340, 1587847032340
31, 118.24, -267.96, 39.80, -20.67, 0.000, 0.000, 0.000, 15:37:12.370, 1587847032370
32, -6.94, -396.15, 19.98, -15.43, 0.000, 0.000, 0.000, 15:37:12.370, 1587847032370
33, 214.93, -168.47, 226.64, 69.97, 0.000, 0.000, 0.000, 15:37:12.371, 1587847032371
34, 164.77, -213.62, 175.14, 12.48, 0.000, 0.000, 0.000, 15:37:12.371, 1587847032371
35, -28.79, -415.71, -46.98, -37.14, 0.000, 0.000, 0.000, 15:37:12.372, 1587847032372
36, 159.74, -234.56, 147.73, 55.87, 0.000, 0.000, 0.000, 15:37:12.372, 1587847032372
37, 241.69, -159.96, 223.55, 46.21, 0.000, 0.000, 0.000, 15:37:12.389, 1587847032389
38, -5.67, -377.53, 0.77, -41.55, 0.000, 0.000, 0.000, 15:37:12.389, 1587847032389
39, 65.33, -315.47, 77.18, 23.10, 0.000, 0.000, 0.000, 15:37:12.400, 1587847032400
40, 274.74, -128.40, 264.55, 69.43, 0.000, 0.000, 0.000, 15:37:12.400, 1587847032400
41, 91.17, -305.14, 73.39, -23.09, 0.000, 0.000, 0.000, 15:37:12.401, 1587847032401
42, -4.14, -393.20, -13.48, -17.01, 0.000, 0.000, 0.000, 15:37:12.401, 1587847032401
43, 231.90, -165.59, 226.88, 69.07, 0.000, 0.000, 0.000, 15:37:12.414, 1587847032414
44, 186.26, -219.78, 161.74, 8.73, 0.000, 0.000, 0.000, 15:37:12.414, 1587847032414
45, -33.41, -415.84, -41.09, -34.21, 0.000, 0.000, 0.000, 15:37:12.429, 1587847032429
46, 166.81, -231.68, 153.51, 56.67, 0.000, 0.000, 0.000, 15:37:12.429, 1587847032429
47, 248.92, -144.05, 229.72, 44.53, 0.000, 0.000, 0.000, 15:37:12.430, 1587847032430
48, 13.37, -380.42, -4.88, -39.82, 0.000, 0.000, 0.000, 15:37:12.430, 1587847032430
49, 71.65, -323.18, 58.18, 23.56, 0.000, 0.000, 0.000, 15:37:12.445, 1587847032445
50, 288.12, -117.21, 262.36, 70.27, 0.000, 0.000, 0.000, 15:37:12.445, 1587847032445
51, 97.51, -310.36, 60.88, -21.41, 0.000, 0.000, 0.000, 15:37:12.460, 1587847032460
52, -5.60, -400.83, -29.97, -13.42, 0.000, 0.000, 0.000, 15:37:12.460, 1587847032460
53, 242.21, -158.17, 213.56, 73.49, 0.000, 0.000, 0.000, 15:37:12.461, 1587847032461
54, 199.72, -212.37, 165.62, 16.00, 0.000, 0.000, 0.000, 15:37:12.461, 1587847032461
55, -23.54, -434.38, -64.90, -35.66, 0.000, 0.000, 0.000, 15:37:12.473, 1587847032473
56, 162.96, -219.46, 143.97, 56.13, 0.000, 0.000, 0.000, 15:37:12.473, 1587847032473
57, 261.51, -139.47, 234.93, 45.64, 0.000, 0.000, 0.000, 15:37:12.498, 1587847032498
58, 3.95, -400.14, -42.12, -38.96, 0.000, 0.000, 0.000, 15:37:12.498, 1587847032498
59, 81.71, -309.63, 45.91, 21.55, 0.000, 0.000, 0.000, 15:37:12.498, 1587847032498
60, 282.09, -110.62, 253.09, 68.05, 0.000, 0.000, 0.000, 15:37:12.498, 1587847032498
61, 79.68, -310.79, 37.32, -22.04, 0.000, 0.000, 0.000, 15:37:12.504, 1587847032504
62, 5.87, -373.88, -31.17, -11.60, 0.000, 0.000, 0.000, 15:37:12.504, 1587847032504
63, 245.51, -151.14, 204.67, 70.59, 0.000, 0.000, 0.000, 15:37:12.520, 1587847032520
64, 179.70, -208.28, 137.16, 7.84, 0.000, 0.000, 0.000, 15:37:12.520, 1587847032520
65, -18.67, -407.10, -68.34, -38.93, 0.000, 0.000, 0.000, 15:37:12.523, 1587847032523
66, 169.37, -220.15, 123.32, 55.92, 0.000, 0.000, 0.000, 15:37:12.523, 1587847032523
67, 266.60, -133.89, 210.12, 48.88, 0.000, 0.000, 0.000, 15:37:12.550, 1587847032550
68, 33.92, -366.00, -37.36, -38.17, 0.000, 0.000, 0.000, 15:37:12.550, 1587847032550
69, 84.41, -309.14, 26.70, 21.99, 0.000, 0.000, 0.000, 15:37:12.551, 1587847032551
70, 287.97, -115.56, 216.37, 68.03, 0.000, 0.000, 0.000, 15:37:12.551, 1587847032551
71, 101.47, -290.85, 43.41, -22.77, 0.000, 0.000, 0.000, 15:37:12.553, 1587847032553
72, 4.84, -378.95, -35.64, -8.19, 0.000, 0.000, 0.000, 15:37:12.553, 1587847032553
73, 250.55, -134.96, 198.47, 71.44, 0.000, 0.000, 0.000, 15:37:12.564, 1587847032564
74, 199.63, -187.66, 135.08, 6.90, 0.000, 0.000, 0.000, 15:37:12.564, 1587847032564
75, -13.99, -404.88, -75.46, -36.12, 0.000, 0.000, 0.000, 15:37:12.580, 1587847032580
76, 184.68, -217.64, 118.03, 54.97, 0.000, 0.000, 0.000, 15:37:12.580, 1587847032580
77, 270.11, -122.34, 201.50, 39.52, 0.000, 0.000, 0.000, 15:37:12.581, 1587847032581
78, 26.74, -365.49, -40.73, -37.88, 0.000, 0.000, 0.000, 15:37:12.581, 1587847032581
79, 86.02, -308.87, 15.55, 23.89, 0.000, 0.000, 0.000, 15:37:12.594, 1587847032594
80, 311.73, -85.03, 234.39, 65.83, 0.000, 0.000, 0.000, 15:37:12.594, 1587847032594
81, 100.98, -286.78, 29.19, -25.48, 0.000, 0.000, 0.000, 15:37:12.610, 1587847032610
82, 20.01, -368.67, -48.29, -9.89, 0.000, 0.000, 0.000, 15:37:12.610, 1587847032610
83, 255.43, -140.93, 189.21, 74.95, 0.000, 0.000, 0.000, 15:37:12.611, 1587847032611
84, 201.81, -192.07, 139.49, 11.00, 0.000, 0.000, 0.000, 15:37:12.611, 1587847032611
85, -17.70, -403.72, -84.67, -38.85, 0.000, 0.000, 0.000, 15:37:12.624, 1587847032624
86, 182.28, -211.04, 117.21, 56.43, 0.000, 0.000, 0.000, 15:37:12.624, 1587847032624
87, 288.51, -125.89, 211.90, 47.63, 0.000, 0.000, 0.000, 15:37:12.640, 1587847032640
88, 22.76, -377.24, -34.90, -39.60, 0.000, 0.000, 0.000, 15:37:12.640, 1587847032640
89, 85.33, -301.91, 25.39, 21.34, 0.000, 0.000, 0.000, 15:37:12.640, 1587847032640
90, 292.59, -105.11, 221.18, 64.69, 0.000, 0.000, 0.000, 15:37:12.640, 1587847032640
91, 91.46, -285.45, 38.76, -23.21, 0.000, 0.000, 0.000, 15:37:12.654, 1587847032654
92, 23.10, -366.56, -44.04, -13.53, 0.000, 0.000, 0.000, 15:37:12.654, 1587847032654
93, 260.17, -140.14, 187.57, 71.57, 0.000, 0.000, 0.000, 15:37:12.669, 1587847032669
94, 203.88, -199.99, 121.74, 9.68, 0.000, 0.000, 0.000, 15:37:12.669, 1587847032669
95, -17.02, -413.66, -80.34, -37.21, 0.000, 0.000, 0.000, 15:37:12.670, 1587847032670
96, 177.35, -211.29, 123.00, 57.77, 0.000, 0.000, 0.000, 15:37:12.670, 1587847032670
97, 254.54, -126.52, 199.97, 45.85, 0.000, 0.000, 0.000, 15:37:12.687, 1587847032687
98, 41.00, -350.73, -25.37, -44.49, 0.000, 0.000, 0.000, 15:37:12.687, 1587847032687
99, 87.16, -305.11, 19.26, 25.29, 0.000, 0.000, 0.000, 15:37:12.699, 1587847032699
100, 292.72, -106.27, 227.12, 68.24, 0.000, 0.000, 0.000, 15:37:12.699, 1587847032699
101, 104.43, -296.59, 31.58, -19.16, 0.000, 0.000, 0.000, 15:37:12.714, 1587847032714
102, 15.25, -385.09, -50.23, -11.11, 0.000, 0.000, 0.000, 15:37:12.714, 1587847032714
103, 261.50, -132.86, 193.68, 73.18, 0.000, 0.000, 0.000, 15:37:12.715, 1587847032715
104, 201.23, -186.92, 137.48, 9.36, 0.000, 0.000, 0.000, 15:37:12.715, 1587847032715
105, -5.77, -394.62, -74.21, -35.92, 0.000, 0.000, 0.000, 15:37:12.729, 1587847032729
106, 178.59, -206.73, 114.33, 54.63, 0.000, 0.000, 0.000, 15:37:12.729, 1587847032729
107, 279.24, -119.21, 198.65, 42.06, 0.000, 0.000, 0.000, 15:37:12.730, 1587847032730
108, 42.75, -343.65, -32.95, -42.85, 0.000, 0.000, 0.000, 15:37:12.730, 1587847032730
109, 81.31, -305.42, 15.62, 20.12, 0.000, 0.000, 0.000, 15:37:12.744, 1587847032744
110, 292.19, -93.02, 231.67, 69.15, 0.000, 0.000, 0.000, 15:37:12.744, 1587847032744
111, 102.19, -293.77, 29.62, -25.93, 0.000, 0.000, 0.000, 15:37:12.762, 1587847032762
112, 5.87, -381.10, -58.67, -15.89, 0.000, 0.000, 0.000, 15:37:12.762, 1587847032762
113, 253.69, -132.98, 194.52, 73.25, 0.000, 0.000, 0.000, 15:37:12.764, 1587847032764
114, 210.93, -192.57, 134.49, 8.70, 0.000, 0.000, 0.000, 15:37:12.764, 1587847032764
115, -8.41, -393.18, -66.26, -34.36, 0.000, 0.000, 0.000, 15:37:12.774, 1587847032774
116, 173.00, -209.39, 116.53, 54.59, 0.000, 0.000, 0.000, 15:37:12.774, 1587847032774
117, 265.68, -123.96, 197.20, 43.66, 0.000, 0.000, 0.000, 15:37:12.791, 1587847032791
118, 26.72, -364.38, -39.42, -38.82, 0.000, 0.000, 0.000, 15:37:12.791, 1587847032791
119, 86.35, -300.87, 24.69, 21.88, 0.000, 0.000, 0.000, 15:37:12.794, 1587847032794
120, 285.59, -106.12, 222.57, 67.21, 0.000, 0.000, 0.000, 15:37:12.794, 1587847032794
121, 99.42, -294.75, 35.80, -19.12, 0.000, 0.000, 0.000, 15:37:12.804, 1587847032804
122, 24.35, -369.15, -45.90, -12.52, 0.000, 0.000, 0.000, 15:37:12.804, 1587847032804
123, 257.86, -134.37, 192.17, 72.09, 0.000, 0.000, 0.000, 15:37:12.821, 1587847032821
124, 202.29, -194.27, 131.00, 11.15, 0.000, 0.000, 0.000, 15:37:12.821, 1587847032821
125, -21.82, -397.08, -75.23, -35.63, 0.000, 0.000, 0.000, 15:37:12.821, 1587847032821
126, 177.20, -199.82, 122.62, 54.73, 0.000, 0.000, 0.000, 15:37:12.821, 1587847032821
127, 274.99, -129.67, 205.84, 44.06, 0.000, 0.000, 0.000, 15:37:12.834, 1587847032834
128, 30.56, -349.41, -17.07, -37.95, 0.000, 0.000, 0.000, 15:37:12.834, 1587847032834
129, 76.25, -304.33, 18.52, 23.20, 0.000, 0.000, 0.000, 15:37:12.850, 1587847032850
130, 294.45, -95.33, 230.47, 68.61, 0.000, 0.000, 0.000, 15:37:12.850, 1587847032850
131, 106.80, -287.42, 40.72, -23.68, 0.000, 0.000, 0.000, 15:37:12.851, 1587847032851
132, 12.13, -385.04, -46.94, -15.63, 0.000, 0.000, 0.000, 15:37:12.851, 1587847032851
133, 247.21, -139.10, 190.51, 69.57, 0.000, 0.000, 0.000, 15:37:12.880, 1587847032880
134, 193.96, -186.78, 139.51, 12.58, 0.000, 0.000, 0.000, 15:37:12.880, 1587847032880
135, -5.59, -389.89, -75.65, -35.77, 0.000, 0.000, 0.000, 15:37:12.880, 1587847032880
136, 177.83, -212.98, 118.08, 53.10, 0.000, 0.000, 0.000, 15:37:12.880, 1587847032880
137, 260.97, -119.54, 207.64, 50.21, 0.000, 0.000, 0.000, 15:37:12.881, 1587847032881
138, 29.52, -353.75, -32.61, -40.06, 0.000, 0.000, 0.000, 15:37:12.881, 1587847032881
139, 86.26, -304.81, 20.12, 20.43, 0.000, 0.000, 0.000, 15:37:12.893, 1587847032893
140, 290.67, -104.10, 224.75, 65.07, 0.000, 0.000, 0.000, 15:37:12.893, 1587847032893
141, 102.35, -284.56, 42.99, -18.19, 0.000, 0.000, 0.000, 15:37:12.910, 1587847032910
142, 16.25, -373.18, -39.70, -12.33, 0.000, 0.000, 0.000, 15:37:12.910, 1587847032910
143, 258.76, -142.52, 192.02, 75.44, 0.000, 0.000, 0.000, 15:37:12.911, 1587847032911
144, 200.27, -206.76, 138.72, 10.52, 0.000, 0.000, 0.000, 15:37:12.911, 1587847032911
145, -15.95, -391.85, -67.40, -42.63, 0.000, 0.000, 0.000, 15:37:12.924, 1587847032924
146, 175.39, -202.79, 124.95, 53.13, 0.000, 0.000, 0.000, 15:37:12.924, 1587847032924
147, 258.39, -129.22, 195.96, 36.83, 0.000, 0.000, 0.000, 15:37:12.940, 1587847032940
148, 29.92, -361.63, -33.93, -38.87, 0.000, 0.000, 0.000, 15:37:12.940, 1587847032940
149, 88.20, -300.67, 24.06, 22.44, 0.000, 0.000, 0.000, 15:37:12.941, 1587847032941
150, 291.61, -106.25, 227.19, 68.45, 0.000, 0.000, 0.000, 15:37:12.941, 1587847032941
151, 97.18, -295.50, 34.02, -21.14, 0.000, 0.000, 0.000, 15:37:12.954, 1587847032954
152, 4.18, -384.57, -42.37, -11.50, 0.000, 0.000, 0.000, 15:37:12.954, 1587847032954
153, 252.62, -136.16, 198.39, 72.95, 0.000, 0.000, 0.000, 15:37:12.969, 1587847032969
154, 184.88, -197.66, 139.90, 13.49, 0.000, 0.000, 0.000, 15:37:12.969, 1587847032969
155, -8.18, -394.02, -61.38, -34.02, 0.000, 0.000, 0.000, 15:37:12.969, 1587847032969
156, 172.22, -206.84, 129.28, 51.80, 0.000, 0.000, 0.000, 15:37:12.969, 1587847032969
157, 263.53, -128.21, 208.11, 40.45, 0.000, 0.000, 0.000, 15:37:12.983, 1587847032983
158, 24.73, -369.52, -33.89, -36.40, 0.000, 0.000, 0.000, 15:37:12.983, 1587847032983
159, 81.85, -308.40, 19.04, 18.76, 0.000, 0.000, 0.000, 15:37:13.000, 1587847033000
160, 296.40, -103.26, 236.90, 68.77, 0.000, 0.000, 0.000, 15:37:13.000, 1587847033000
161, 93.95, -300.18, 34.84, -21.27, 0.000, 0.000, 0.000, 15:37:13.001, 1587847033001
162, 8.75, -368.50, -46.52, -16.57, 0.000, 0.000, 0.000, 15:37:13.001, 1587847033001
163, 260.05, -132.42, 195.23, 69.59, 0.000, 0.000, 0.000, 15:37:13.014, 1587847033014
164, 201.32, -195.88, 130.88, 11.80, 0.000, 0.000, 0.000, 15:37:13.014, 1587847033014
165, -8.45, -401.35, -73.33, -34.36, 0.000, 0.000, 0.000, 15:37:13.030, 1587847033030
166, 177.75, -215.57, 126.63, 56.52, 0.000, 0.000, 0.000, 15:37:13.030, 1587847033030
167, 259.12, -124.24, 210.31, 43.80, 0.000, 0.000, 0.000, 15:37:13.031, 1587847033031
168, 13.13, -368.17, -31.32, -38.84, 0.000, 0.000, 0.000, 15:37:13.031, 1587847033031
169, 83.42, -308.93, 31.22, 20.04, 0.000, 0.000, 0.000, 15:37:13.044, 1587847033044
170, 298.48, -108.48, 238.01, 68.32, 0.000, 0.000, 0.000, 15:37:13.044, 1587847033044
171, 102.52, -288.38, 39.65, -24.14, 0.000, 0.000, 0.000, 15:37:13.060, 1587847033060
172, 7.47, -373.86, -39.13, -13.58, 0.000, 0.000, 0.000, 15:37:13.060, 1587847033060
173, 254.72, -139.04, 202.41, 73.72, 0.000, 0.000, 0.000, 15:37:13.062, 1587847033062
174, 196.46, -193.86, 138.06, 8.34, 0.000, 0.000, 0.000, 15:37:13.062, 1587847033062
175, -6.62, -399.24, -54.02, -32.10, 0.000, 0.000, 0.000, 15:37:13.074, 1587847033074
176, 180.11, -208.47, 128.15, 56.24, 0.000, 0.000, 0.000, 15:37:13.074, 1587847033074
177, 268.07, -123.30, 215.91, 45.00, 0.000, 0.000, 0.000, 15:37:13.106, 1587847033106
178, 23.76, -362.94, -40.41, -33.85, 0.000, 0.000, 0.000, 15:37:13.106, 1587847033106
179, 83.02, -307.65, 35.91, 23.31, 0.000, 0.000, 0.000, 15:37:13.107, 1587847033107
180, 286.19, -104.17, 235.24, 65.28, 0.000, 0.000, 0.000, 15:37:13.107, 1587847033107
181, 90.33, -292.57, 41.68, -29.16, 0.000, 0.000, 0.000, 15:37:13.108, 1587847033108
182, 3.56, -367.36, -42.38, -12.44, 0.000, 0.000, 0.000, 15:37:13.108, 1587847033108
183, 250.07, -141.68, 195.87, 72.57, 0.000, 0.000, 0.000, 15:37:13.109, 1587847033109
184, 207.66, -196.74, 134.97, 13.41, 0.000, 0.000, 0.000, 15:37:13.109, 1587847033109
185, -8.12, -403.45, -73.80, -35.13, 0.000, 0.000, 0.000, 15:37:13.119, 1587847033119
186, 186.96, -210.48, 126.02, 53.42, 0.000, 0.000, 0.000, 15:37:13.119, 1587847033119
187, 265.86, -134.63, 207.67, 47.71, 0.000, 0.000, 0.000, 15:37:13.134, 1587847033134
188, 29.14, -368.29, -29.73, -40.84, 0.000, 0.000, 0.000, 15:37:13.134, 1587847033134
189, 82.24, -297.91, 34.36, 22.02, 0.000, 0.000, 0.000, 15:37:13.150, 1587847033150
190, 290.98, -101.13, 234.12, 62.38, 0.000, 0.000, 0.000, 15:37:13.150, 1587847033150
191, 110.38, -277.91, 55.49, -25.99, 0.000, 0.000, 0.000, 15:37:13.151, 1587847033151
192, 4.44, -384.05, -52.51, -12.17, 0.000, 0.000, 0.000, 15:37:13.151, 1587847033151
193, 250.81, -152.32, 193.37, 70.87, 0.000, 0.000, 0.000, 15:37:13.164, 1587847033164
194, 202.81, -194.76, 141.35, 7.89, 0.000, 0.000, 0.000, 15:37:13.164, 1587847033164
195, -15.79, -396.58, -69.70, -36.48, 0.000, 0.000, 0.000, 15:37:13.180, 1587847033180
196, 176.60, -215.40, 124.44, 56.53, 0.000, 0.000, 0.000, 15:37:13.180, 1587847033180
197, 261.65, -132.75, 207.91, 47.12, 0.000, 0.000, 0.000, 15:37:13.183, 1587847033183
198, 27.62, -362.91, -25.44, -43.00, 0.000, 0.000, 0.000, 15:37:13.183, 1587847033183
199, 87.20, -300.41, 30.93, 18.87, 0.000, 0.000, 0.000, 15:37:13.195, 1587847033195
200, 291.75, -102.77, 233.47, 65.78, 0.000, 0.000, 0.000, 15:37:13.195, 1587847033195
0, 110.13, -288.91, 46.74, -27.39, 0.000, 0.000, 0.000, 15:37:13.197, 1587847033197
1, 20.05, -373.18, -40.17, -11.53, 0.000, 0.000, 0.000, 15:37:13.209, 1587847033209
2, 267.82, -136.68, 203.41, 71.01, 0.000, 0.000, 0.000, 15:37:13.209, 1587847033209
3, 200.95, -199.05, 141.07, 10.39, 0.000, 0.000, 0.000, 15:37:13.224, 1587847033224
4, -8.11, -399.88, -65.42, -36.78, 0.000, 0.000, 0.000, 15:37:13.224, 1587847033224
5, 190.24, -219.27, 126.93, 54.89, 0.000, 0.000, 0.000, 15:37:13.226, 1587847033226
6, 281.59, -122.90, 215.83, 45.15, 0.000, 0.000, 0.000, 15:37:13.226, 1587847033226
7, 22.37, -372.98, -37.87, -37.63, 0.000, 0.000, 0.000, 15:37:13.238, 1587847033238
8, 80.02, -313.80, 29.18, 21.81, 0.000, 0.000, 0.000, 15:37:13.238, 1587847033238
9, 290.12, -106.75, 232.05, 70.62, 0.000, 0.000, 0.000, 15:37:13.254, 1587847033254
10, 102.56, -288.18, 51.57, -16.50, 0.000, 0.000, 0.000, 15:37:13.254, 1587847033254
11, 15.40, -381.01, -41.24, -11.64, 0.000, 0.000, 0.000, 15:37:13.270, 1587847033270
12, 256.21, -143.69, 197.97, 68.91, 0.000, 0.000, 0.000, 15:37:13.270, 1587847033270
13, 191.04, -204.55, 129.79, 7.82, 0.000, 0.000, 0.000, 15:37:13.271, 1587847033271
14, -13.05, -389.44, -57.47, -36.57, 0.000, 0.000, 0.000, 15:37:13.271, 1587847033271
15, 177.76, -197.28, 131.88, 51.89, 0.000, 0.000, 0.000, 15:37:13.285, 1587847033285
16, 261.95, -132.28, 207.74, 42.35, 0.000, 0.000, 0.000, 15:37:13.285, 1587847033285
17, 34.43, -365.12, -26.83, -39.40, 0.000, 0.000, 0.000, 15:37:13.286, 1587847033286
18, 87.99, -308.94, 29.95, 18.34, 0.000, 0.000, 0.000, 15:37:13.286, 1587847033286
19, 297.73, -105.73, 243.97, 71.01, 0.000, 0.000, 0.000, 15:37:13.300, 1587847033300
20, 102.45, -292.20, 50.59, -23.02, 0.000, 0.000, 0.000, 15:37:13.300, 1587847033300
21, 5.09, -375.07, -24.79, -12.28, 0.000, 0.000, 0.000, 15:37:13.315, 1587847033315
22, 256.51, -141.21, 218.25, 71.61, 0.000, 0.000, 0.000, 15:37:13.315, 1587847033315
23, 179.87, -212.24, 147.06, 7.61, 0.000, 0.000, 0.000, 15:37:13.315, 1587847033315
24, -19.34, -407.87, -60.99, -37.73, 0.000, 0.000, 0.000, 15:37:13.315, 1587847033315
25, 187.71, -202.75, 152.88, 56.95, 0.000, 0.000, 0.000, 15:37:13.332, 1587847033332
26, 260.43, -126.91, 221.42, 42.02, 0.000, 0.000, 0.000, 15:37:13.332, 1587847033332
27, 24.18, -367.52, -17.24, -39.38, 0.000, 0.000, 0.000, 15:37:13.344, 1587847033344
28, 75.43, -316.88, 37.89, 21.46, 0.000, 0.000, 0.000, 15:37:13.344, 1587847033344
29, 287.28, -112.69, 243.82, 66.56, 0.000, 0.000, 0.000, 15:37:13.345, 1587847033345
30, 95.49, -299.65, 54.43, -26.62, 0.000, 0.000, 0.000, 15:37:13.345, 1587847033345
31, -4.87, -390.75, -26.86, -13.10, 0.000, 0.000, 0.000, 15:37:13.361, 1587847033361
32, 264.55, -133.85, 219.30, 70.82, 0.000, 0.000, 0.000, 15:37:13.361, 1587847033361
33, 195.26, -196.40, 155.69, 9.60, 0.000, 0.000, 0.000, 15:37:13.374, 1587847033374
34, -14.69, -406.73, -48.18, -37.57, 0.000, 0.000, 0.000, 15:37:13.374, 1587847033374
35, 175.87, -217.78, 150.31, 54.20, 0.000, 0.000, 0.000, 15:37:13.375, 1587847033375
36, 252.35, -139.66, 220.57, 47.72, 0.000, 0.000, 0.000, 15:37:13.375, 1587847033375
37, 14.71, -372.74, -10.56, -38.04, 0.000, 0.000, 0.000, 15:37:13.389, 1587847033389
38, 84.29, -305.18, 58.35, 23.34, 0.000, 0.000, 0.000, 15:37:13.389, 1587847033389
39, 284.96, -111.21, 250.48, 69.49, 0.000, 0.000, 0.000, 15:37:13.404, 1587847033404
40, 94.34, -304.39, 63.81, -20.34, 0.000, 0.000, 0.000, 15:37:13.404, 1587847033404
41, 5.23, -381.13, -23.98, -15.36, 0.000, 0.000, 0.000, 15:37:13.405, 1587847033405
42, 261.67, -131.11, 224.82, 70.31, 0.000, 0.000, 0.000, 15:37:13.405, 1587847033405
43, 192.32, -202.81, 151.13, 5.36, 0.000, 0.000, 0.000, 15:37:13.419, 1587847033419
44, -27.51, -410.36, -49.52, -37.16, 0.000, 0.000, 0.000, 15:37:13.419, 1587847033419
45, 164.16, -218.03, 147.32, 55.95, 0.000, 0.000, 0.000, 15:37:13.435, 1587847033435
46, 255.83, -134.85, 230.76, 42.83, 0.000, 0.000, 0.000, 15:37:13.435, 1587847033435
47, 34.09, -375.25, -1.15, -39.79, 0.000, 0.000, 0.000, 15:37:13.436, 1587847033436
48, 89.59, -311.65, 46.53, 23.22, 0.000, 0.000, 0.000, 15:37:13.436, 1587847033436
49, 284.02, -121.95, 247.47, 67.74, 0.000, 0.000, 0.000, 15:37:13.449, 1587847033449
50, 102.59, -290.92, 67.95, -23.83, 0.000, 0.000, 0.000, 15:37:13.449, 1587847033449
51, 4.33, -383.90, -25.88, -10.89, 0.000, 0.000, 0.000, 15:37:13.464, 1587847033464
52, 253.44, -142.57, 229.28, 69.85, 0.000, 0.000, 0.000, 15:37:13.464, 1587847033464
53, 179.53, -209.96, 158.01, 15.09, 0.000, 0.000, 0.000, 15:37:13.466, 1587847033466
54, -17.96, -405.76, -34.91, -37.20, 0.000, 0.000, 0.000, 15:37:13.466, 1587847033466
55, 166.64, -222.48, 163.00, 52.57, 0.000, 0.000, 0.000, 15:37:13.479, 1587847033479
56, 248.34, -144.92, 229.17, 43.62, 0.000, 0.000, 0.000, 15:37:13.479, 1587847033479
57, 25.08, -356.84, -1.88, -40.36, 0.000, 0.000, 0.000, 15:37:13.495, 1587847033495
58, 67.89, -312.52, 49.37, 21.74, 0.000, 0.000, 0.000, 15:37:13.495, 1587847033495
59, 255.12, -125.95, 247.41, 67.74, 0.000, 0.000, 0.000, 15:37:13.496, 1587847033496
60, 85.56, -290.56, 83.60, -20.53, 0.000, 0.000, 0.000, 15:37:13.496, 1587847033496
61, 7.71, -381.65, -15.69, -13.46, 0.000, 0.000, 0.000, 15:37:13.509, 1587847033509
62, 246.99, -144.48, 229.00, 70.45, 0.000, 0.000, 0.000, 15:37:13.509, 1587847033509
63, 176.71, -212.31, 160.90, 12.10, 0.000, 0.000, 0.000, 15:37:13.525, 1587847033525
64, -23.12, -412.91, -38.36, -34.89, 0.000, 0.000, 0.000, 15:37:13.525, 1587847033525
65, 157.60, -223.96, 144.83, 57.37, 0.000, 0.000, 0.000, 15:37:13.526, 1587847033526
66, 251.51, -145.34, 234.56, 41.84, 0.000, 0.000, 0.000, 15:37:13.526, 1587847033526
67, 5.26, -380.04, -3.54, -36.16, 0.000, 0.000, 0.000, 15:37:13.540, 1587847033540
68, 63.25, -310.74, 55.30, 24.24, 0.000, 0.000, 0.000, 15:37:13.540, 1587847033540
69, 284.36, -104.94, 263.15, 67.85, 0.000, 0.000, 0.000, 15:37:13.555, 1587847033555
70, 91.61, -290.88, 67.43, -20.64, 0.000, 0.000, 0.000, 15:37:13.555, 1587847033555
71, 5.49, -387.96, -12.46, -8.73, 0.000, 0.000, 0.000, 15:37:13.555, 1587847033555
72, 235.48, -149.19, 224.67, 71.11, 0.000, 0.000, 0.000, 15:37:13.555, 1587847033555
73, 181.76, -204.16, 163.08, 14.54, 0.000, 0.000, 0.000, 15:37:13.568, 1587847033568
74, -21.45, -405.35, -38.36, -39.34, 0.000, 0.000, 0.000, 15:37:13.568, 1587847033568
75, 169.83, -215.43, 150.88, 58.19, 0.000, 0.000, 0.000, 15:37:13.585, 1587847033585
76, 244.20, -145.42, 222.91, 47.39, 0.000, 0.000, 0.000, 15:37:13.585, 1587847033585
77, 7.69, -379.05, -17.80, -41.72, 0.000, 0.000, 0.000, 15:37:13.585, 1587847033585
78, 64.82, -314.61, 59.83, 21.05, 0.000, 0.000, 0.000, 15:37:13.585, 1587847033585
79, 274.73, -107.83, 260.10, 66.53, 0.000, 0.000, 0.000, 15:37:13.598, 1587847033598
80, 85.23, -292.62, 71.55, -20.70, 0.000, 0.000, 0.000, 15:37:13.598, 1587847033598
81, -6.48, -385.70, -11.80, -10.20, 0.000, 0.000, 0.000, 15:37:13.614, 1587847033614
82, 242.00, -144.47, 222.67, 70.79, 0.000, 0.000, 0.000, 15:37:13.614, 1587847033614
83, 191.56, -198.37, 168.35, 8.57, 0.000, 0.000, 0.000, 15:37:13.615, 1587847033615
84, -25.87, -411.89, -39.02, -34.29, 0.000, 0.000, 0.000, 15:37:13.615, 1587847033615
85, 161.03, -218.62, 151.34, 52.71, 0.000, 0.000, 0.000, 15:37:13.629, 1587847033629
86, 251.66, -131.14, 234.46, 46.24, 0.000, 0.000, 0.000, 15:37:13.629, 1587847033629
87, -1.18, -372.54, -11.90, -39.99, 0.000, 0.000, 0.000, 15:37:13.661, 1587847033661
88, 66.04, -310.81, 54.30, 23.29, 0.000, 0.000, 0.000, 15:37:13.661, 1587847033661
89, 277.81, -105.70, 264.41, 67.34, 0.000, 0.000, 0.000, 15:37:13.664, 1587847033664
90, 97.37, -292.77, 70.61, -22.42, 0.000, 0.000, 0.000, 15:37:13.664, 1587847033664
91, 3.73, -378.82, -18.66, -10.66, 0.000, 0.000, 0.000, 15:37:13.664, 1587847033664
92, 251.15, -132.51, 232.63, 75.18, 0.000, 0.000, 0.000, 15:37:13.664, 1587847033664
93, 161.09, -206.54, 154.31, 11.37, 0.000, 0.000, 0.000, 15:37:13.665, 1587847033665
94, -26.12, -405.59, -46.53, -38.25, 0.000, 0.000, 0.000, 15:37:13.665, 1587847033665
95, 173.36, -211.98, 154.16, 58.34, 0.000, 0.000, 0.000, 15:37:13.674, 1587847033674
96, 262.54, -125.46, 232.33, 46.00, 0.000, 0.000, 0.000, 15:37:13.674, 1587847033674
97, 5.39, -372.67, -15.45, -37.46, 0.000, 0.000, 0.000, 15:37:13.689, 1587847033689
98, 70.45, -318.41, 50.54, 21.92, 0.000, 0.000, 0.000, 15:37:13.689, 1587847033689
99, 283.67, -107.66, 268.08, 67.37, 0.000, 0.000, 0.000, 15:37:13.705, 1587847033705
100, 97.88, -290.30, 69.79, -23.42, 0.000, 0.000, 0.000, 15:37:13.705, 1587847033705
101, 1.22, -382.40, -22.43, -12.40, 0.000, 0.000, 0.000, 15:37:13.705, 1587847033705
102, 240.88, -149.21, 223.26, 70.10, 0.000, 0.000, 0.000, 15:37:13.705, 1587847033705
103, 183.99, -200.48, 154.25, 10.32, 0.000, 0.000, 0.000, 15:37:13.719, 1587847033719
104, -26.98, -401.05, -45.52, -34.80, 0.000, 0.000, 0.000, 15:37:13.719, 1587847033719
105, 165.48, -215.31, 155.11, 56.85, 0.000, 0.000, 0.000, 15:37:13.738, 1587847033738
106, 258.40, -133.36, 235.67, 46.00, 0.000, 0.000, 0.000, 15:37:13.738, 1587847033738
107, 16.42, -367.85, -8.25, -41.54, 0.000, 0.000, 0.000, 15:37:13.745, 1587847033745
108, 86.23, -311.63, 52.48, 24.36, 0.000, 0.000, 0.000, 15:37:13.745, 1587847033745
109, 277.79, -107.92, 254.16, 69.10, 0.000, 0.000, 0.000, 15:37:13.749, 1587847033749
110, 91.44, -295.42, 63.29, -22.99, 0.000, 0.000, 0.000, 15:37:13.749, 1587847033749
111, 7.61, -377.76, -16.26, -11.44, 0.000, 0.000, 0.000, 15:37:13.764, 1587847033764
112, 245.74, -140.18, 229.68, 71.39, 0.000, 0.000, 0.000, 15:37:13.764, 1587847033764
113, 180.36, -200.61, 153.51, 12.98, 0.000, 0.000, 0.000, 15:37:13.766, 1587847033766
114, -11.37, -407.42, -50.06, -36.39, 0.000, 0.000, 0.000, 15:37:13.766, 1587847033766
115, 155.36, -220.92, 155.34, 55.67, 0.000, 0.000, 0.000, 15:37:13.780, 1587847033780
116, 275.65, -106.59, 253.80, 43.11, 0.000, 0.000, 0.000, 15:37:13.780, 1587847033780
117, 21.98, -369.37, -25.24, -41.78, 0.000, 0.000, 0.000, 15:37:13.796, 1587847033796
118, 98.71, -296.77, 60.17, 22.18, 0.000, 0.000, 0.000, 15:37:13.796, 1587847033796
119, 249.80, -123.15, 247.73, 65.07, 0.000, 0.000, 0.000, 15:37:13.798, 1587847033798
120, 89.87, -278.18, 91.74, -22.02, 0.000, 0.000, 0.000, 15:37:13.798, 1587847033798
121, 11.81, -363.84, -40.05, -14.95, 0.000, 0.000, 0.000, 15:37:13.829, 1587847033829
122, 226.32, -169.01, 228.44, 72.64, 0.000, 0.000, 0.000, 15:37:13.829, 1587847033829
123, 288.80, -110.10, 207.49, 12.32, 0.000, 0.000, 0.000, 15:37:13.831, 1587847033831
124, -29.98, -454.36, -86.30, -36.10, 0.000, 0.000, 0.000, 15:37:13.831, 1587847033831
125, 166.54, -217.00, 132.96, 54.52, 0.000, 0.000, 0.000, 15:37:13.832, 1587847033832
126, 352.24, -49.71, 120.00, 47.03, 0.000, 0.000, 0.000, 15:37:13.832, 1587847033832
127, -141.16, -462.95, -8.44, -39.16, 0.000, 0.000, 0.000, 15:37:13.839, 1587847033839
128, 43.18, -355.90, 62.77, 22.07, 0.000, 0.000, 0.000, 15:37:13.839, 1587847033839
129, 256.24, -115.65, 279.86, 71.22, 0.000, 0.000, 0.000, 15:37:13.855, 1587847033855
130, 77.39, -292.63, 89.89, -25.59, 0.000, 0.000, 0.000, 15:37:13.855, 1587847033855
131, -4.15, -376.53, -6.67, -12.18, 0.000, 0.000, 0.000, 15:37:13.856, 1587847033856
132, 363.63, 8.10, 102.35, 71.80, 0.000, 0.000, 0.000, 15:37:13.856, 1587847033856
133, 478.72, 31.88, 280.34, 10.15, 0.000, 0.000, 0.000, 15:37:13.870, 1587847033870
134, -89.68, -491.29, -42.56, -33.47, 0.000, 0.000, 0.000, 15:37:13.870, 1587847033870
135, 310.37, -109.73, 167.88, 52.60, 0.000, 0.000, 0.000, 15:37:13.885, 1587847033885
136, 210.95, -224.10, 87.35, 44.74, 0.000, 0.000, 0.000, 15:37:13.885, 1587847033885
137, -50.76, -374.05, 38.69, -40.47, 0.000, 0.000, 0.000, 15:37:13.886, 1587847033886
138, 64.08, -296.19, -29.66, 16.87, 0.000, 0.000, 0.000, 15:37:13.886, 1587847033886
139, 217.53, -171.98, 279.48, 66.01, 0.000, 0.000, 0.000, 15:37:13.899, 1587847033899
140, 202.51, -172.38, 208.46, -20.56, 0.000, 0.000, 0.000, 15:37:13.899, 1587847033899
141, 22.28, -394.62, -80.66, -10.78, 0.000, 0.000, 0.000, 15:37:13.916, 1587847033916
142, 203.49, -187.06, 226.23, 73.23, 0.000, 0.000, 0.000, 15:37:13.916, 1587847033916
143, 156.07, -115.07, 166.99, 14.60, 0.000, 0.000, 0.000, 15:37:13.917, 1587847033917
144, -201.38, -541.13, -40.36, -42.46, 0.000, 0.000, 0.000, 15:37:13.917, 1587847033917
145, 48.51, -283.69, 157.73, 55.40, 0.000, 0.000, 0.000, 15:37:13.929, 1587847033929
146, 237.16, -163.16, 223.55, 43.78, 0.000, 0.000, 0.000, 15:37:13.929, 1587847033929
147, 99.69, -259.19, 44.88, -38.30, 0.000, 0.000, 0.000, 15:37:13.945, 1587847033945
148, -133.32, -451.69, 46.33, 18.93, 0.000, 0.000, 0.000, 15:37:13.945, 1587847033945
149, 161.95, -192.38, 323.31, 65.10, 0.000, 0.000, 0.000, 15:37:13.947, 1587847033947
150, 109.39, -275.79, 152.78, -22.58, 0.000, 0.000, 0.000, 15:37:13.947, 1587847033947
151, -23.87, -353.77, 82.96, -8.87, 0.000, 0.000, 0.000, 15:37:13.960, 1587847033960
152, 307.82, -57.64, 262.36, 73.19, 0.000, 0.000, 0.000, 15:37:13.960, 1587847033960
153, 193.99, -140.92, 178.11, 11.83, 0.000, 0.000, 0.000, 15:37:13.987, 1587847033987
154, -76.15, -483.03, -97.58, -39.63, 0.000, 0.000, 0.000, 15:37:13.987, 1587847033987
155, 134.17, -251.70, 208.62, 56.64, 0.000, 0.000, 0.000, 15:37:13.988, 1587847033988
156, 108.04, -212.84, 222.11, 45.91, 0.000, 0.000, 0.000, 15:37:13.988, 1587847033988
157, -62.51, -400.16, 118.30, -39.41, 0.000, 0.000, 0.000, 15:37:13.989, 1587847033989
158, -16.09, -356.10, 72.22, 25.87, 0.000, 0.000, 0.000, 15:37:13.989, 1587847033989
159, 248.85, -116.68, 319.95, 64.74, 0.000, 0.000, 0.000, 15:37:14.006, 1587847034006
160, 61.84, -319.68, 123.33, -20.69, 0.000, 0.000, 0.000, 15:37:14.006, 1587847034006
161, -48.71, -408.89, -5.90, -12.87, 0.000, 0.000, 0.000, 15:37:14.010, 1587847034010
162, 221.16, -156.29, 309.59, 68.95, 0.000, 0.000, 0.000, 15:37:14.010, 1587847034010
163, 184.90, -154.51, 104.43, 11.31, 0.000, 0.000, 0.000, 15:37:14.024, 1587847034024
164, -157.01, -481.03, 90.92, -31.94, 0.000, 0.000, 0.000, 15:37:14.025, 1587847034025
165, 135.98, -269.69, 164.84, 52.75, 0.000, 0.000, 0.000, 15:37:14.035, 1587847034035
166, 274.70, -155.51, 296.64, 47.32, 0.000, 0.000, 0.000, 15:37:14.035, 1587847034035
167, -54.52, -393.09, 9.48, -38.72, 0.000, 0.000, 0.000, 15:37:14.037, 1587847034037
168, -37.12, -349.94, 84.27, 19.81, 0.000, 0.000, 0.000, 15:37:14.037, 1587847034037
169, 319.26, -89.93, 261.81, 70.42, 0.000, 0.000, 0.000, 15:37:14.049, 1587847034049
170, 9.01, -358.65, 105.49, -21.55, 0.000, 0.000, 0.000, 15:37:14.049, 1587847034049
171, -39.19, -402.14, 94.34, -15.54, 0.000, 0.000, 0.000, 15:37:14.065, 1587847034065
172, 204.15, -179.76, 240.58, 69.48, 0.000, 0.000, 0.000, 15:37:14.065, 1587847034065
173, 196.72, -166.72, 173.53, 12.63, 0.000, 0.000, 0.000, 15:37:14.065, 1587847034065
174, -48.74, -451.82, -45.67, -32.93, 0.000, 0.000, 0.000, 15:37:14.065, 1587847034065
175, 170.76, -241.89, 157.49, 55.08, 0.000, 0.000, 0.000, 15:37:14.078, 1587847034078
176, 166.77, -188.77, 355.07, 42.57, 0.000, 0.000, 0.000, 15:37:14.078, 1587847034078
177, -45.14, -425.66, 3.63, -37.08, 0.000, 0.000, 0.000, 15:37:14.095, 1587847034095
178, 30.61, -321.24, 123.93, 21.19, 0.000, 0.000, 0.000, 15:37:14.095, 1587847034095
179, 303.59, -96.12, 270.64, 61.53, 0.000, 0.000, 0.000, 15:37:14.096, 1587847034096
180, -7.52, -371.72, 70.17, -22.12, 0.000, 0.000, 0.000, 15:37:14.096, 1587847034096
181, -15.40, -399.13, 15.16, -13.12, 0.000, 0.000, 0.000, 15:37:14.109, 1587847034109
182, 285.42, -95.24, 219.76, 75.47, 0.000, 0.000, 0.000, 15:37:14.109, 1587847034109
183, 163.00, -264.13, 189.17, 11.77, 0.000, 0.000, 0.000, 15:37:14.125, 1587847034125
184, -66.93, -436.43, 40.30, -35.37, 0.000, 0.000, 0.000, 15:37:14.125, 1587847034125
185, 146.83, -215.92, 112.67, 59.69, 0.000, 0.000, 0.000, 15:37:14.127, 1587847034127
186, 367.85, -72.47, 288.11, 46.77, 0.000, 0.000, 0.000, 15:37:14.127, 1587847034127
187, -63.04, -446.45, -3.07, -36.63, 0.000, 0.000, 0.000, 15:37:14.139, 1587847034139
188, -22.48, -392.74, 114.60, 26.54, 0.000, 0.000, 0.000, 15:37:14.139, 1587847034139
189, 192.23, -152.23, 280.67, 68.86, 0.000, 0.000, 0.000, 15:37:14.155, 1587847034155
190, 122.67, -285.40, 43.09, -22.91, 0.000, 0.000, 0.000, 15:37:14.155, 1587847034155
191, -8.88, -368.30, 54.40, -12.68, 0.000, 0.000, 0.000, 15:37:14.155, 1587847034155
192, 257.20, -188.84, 206.51, 75.63, 0.000, 0.000, 0.000, 15:37:14.155, 1587847034155
193, 147.58, -210.55, 169.65, 10.87, 0.000, 0.000, 0.000, 15:37:14.169, 1587847034169
194, -49.36, -405.79, 84.20, -36.44, 0.000, 0.000, 0.000, 15:37:14.169, 1587847034169
195, 144.16, -279.49, 166.78, 52.44, 0.000, 0.000, 0.000, 15:37:14.185, 1587847034185
196, 250.32, -147.49, 200.69, 41.59, 0.000, 0.000, 0.000, 15:37:14.185, 1587847034185
197, -19.50, -376.97, 12.29, -39.50, 0.000, 0.000, 0.000, 15:37:14.186, 1587847034186
198, 88.59, -311.35, 47.10, 22.46, 0.000, 0.000, 0.000, 15:37:14.186, 1587847034186
199, 224.51, -123.86, 327.64, 65.86, 0.000, 0.000, 0.000, 15:37:14.201, 1587847034201
200, 153.29, -232.06, 26.14, -23.11, 0.000, 0.000, 0.000, 15:37:14.201, 1587847034201
0, 3.77, -448.38, 33.06, -17.08, 0.000, 0.000, 0.000, 15:37:14.218, 1587847034218
1, 131.37, -187.89, 264.33, 72.24, 0.000, 0.000, 0.000, 15:37:14.219, 1587847034219
2, 226.69, -214.98, 218.07, 12.04, 0.000, 0.000, 0.000, 15:37:14.219, 1587847034219
3, -49.37, -377.91, 10.92, -45.02, 0.000, 0.000, 0.000, 15:37:14.230, 1587847034230
4, 94.73, -293.55, 167.32, 56.12, 0.000, 0.000, 0.000, 15:37:14.230, 1587847034230
5, 244.65, -171.69, 190.85, 45.49, 0.000, 0.000, 0.000, 15:37:14.232, 1587847034232
6, 25.29, -363.85, 63.65, -39.25, 0.000, 0.000, 0.000, 15:37:14.232, 1587847034232
7, 56.03, -279.35, 28.10, 18.53, 0.000, 0.000, 0.000, 15:37:14.247, 1587847034247
8, 235.94, -152.10, 316.03, 69.44, 0.000, 0.000, 0.000, 15:37:14.247, 1587847034247
9, 101.40, -320.08, 75.85, -19.55, 0.000, 0.000, 0.000, 15:37:14.260, 1587847034260
10, 41.71, -303.25, 95.57, -10.97, 0.000, 0.000, 0.000, 15:37:14.260, 1587847034260
11, 179.97, -215.93, 132.90, 70.16, 0.000, 0.000, 0.000, 15:37:14.262, 1587847034262
12, 162.27, -234.83, 192.82, 10.12, 0.000, 0.000, 0.000, 15:37:14.262, 1587847034262
13, -43.93, -414.84, -29.09, -34.02, 0.000, 0.000, 0.000, 15:37:14.273, 1587847034273
14, 221.74, -184.51, 193.49, 54.91, 0.000, 0.000, 0.000, 15:37:14.273, 1587847034273
15, 217.23, -152.56, 177.35, 45.14, 0.000, 0.000, 0.000, 15:37:14.290, 1587847034290
16, 3.50, -395.06, 65.32, -41.54, 0.000, 0.000, 0.000, 15:37:14.290, 1587847034290
17, 4.73, -315.50, 131.14, 20.09, 0.000, 0.000, 0.000, 15:37:14.291, 1587847034291
18, 218.14, -211.43, 211.34, 65.31, 0.000, 0.000, 0.000, 15:37:14.291, 1587847034291
19, -5.51, -359.70, 112.53, -24.29, 0.000, 0.000, 0.000, 15:37:14.304, 1587847034304
20, -15.25, -402.67, 35.07, -11.55, 0.000, 0.000, 0.000, 15:37:14.304, 1587847034304
21, 211.76, -171.27, 270.21, 71.20, 0.000, 0.000, 0.000, 15:37:14.321, 1587847034321
22, 265.34, -177.80, 269.07, 15.35, 0.000, 0.000, 0.000, 15:37:14.321, 1587847034321
23, -73.68, -417.72, -149.99, -29.90, 0.000, 0.000, 0.000, 15:37:14.322, 1587847034322
24, 133.11, -236.57, 249.47, 57.65, 0.000, 0.000, 0.000, 15:37:14.322, 1587847034322
25, 284.97, -84.00, 191.94, 44.93, 0.000, 0.000, 0.000, 15:37:14.334, 1587847034334
26, 19.29, -363.81, 26.76, -33.70, 0.000, 0.000, 0.000, 15:37:14.334, 1587847034334
27, 26.00, -342.02, 118.69, 22.15, 0.000, 0.000, 0.000, 15:37:14.350, 1587847034350
28, 261.07, -133.91, 277.11, 67.37, 0.000, 0.000, 0.000, 15:37:14.350, 1587847034350
29, 29.24, -347.59, 121.82, -18.91, 0.000, 0.000, 0.000, 15:37:14.351, 1587847034351
30, -41.77, -415.87, -23.34, -12.14, 0.000, 0.000, 0.000, 15:37:14.351, 1587847034351
31, 262.08, -117.97, 149.05, 72.11, 0.000, 0.000, 0.000, 15:37:14.381, 1587847034381
32, 199.61, -198.98, 284.65, 16.87, 0.000, 0.000, 0.000, 15:37:14.381, 1587847034381
33, -64.61, -417.12, -2.38, -36.46, 0.000, 0.000, 0.000, 15:37:14.382, 1587847034382
34, 93.54, -289.31, 186.84, 53.19, 0.000, 0.000, 0.000, 15:37:14.382, 1587847034382
35, 240.89, -152.49, 250.47, 43.57, 0.000, 0.000, 0.000, 15:37:14.382, 1587847034382
36, 8.89, -375.11, 21.63, -40.45, 0.000, 0.000, 0.000, 15:37:14.382, 1587847034382
37, 1.12, -342.18, 90.03, 20.28, 0.000, 0.000, 0.000, 15:37:14.394, 1587847034394
38, 209.68, -163.48, 297.13, 70.74, 0.000, 0.000, 0.000, 15:37:14.394, 1587847034394
39, 89.53, -295.37, 72.87, -25.55, 0.000, 0.000, 0.000, 15:37:14.411, 1587847034411
40, 36.17, -340.61, -1.66, -11.03, 0.000, 0.000, 0.000, 15:37:14.411, 1587847034411
41, 192.17, -192.34, 307.28, 72.56, 0.000, 0.000, 0.000, 15:37:14.414, 1587847034414
42, 175.00, -210.26, 222.70, 9.06, 0.000, 0.000, 0.000, 15:37:14.414, 1587847034414
43, 31.70, -398.27, -100.89, -33.70, 0.000, 0.000, 0.000, 15:37:14.426, 1587847034426
44, 88.46, -278.17, 228.32, 60.35, 0.000, 0.000, 0.000, 15:37:14.426, 1587847034426
45, 211.20, -150.96, 262.04, 43.22, 0.000, 0.000, 0.000, 15:37:14.440, 1587847034440
46, 35.41, -331.92, -73.56, -38.54, 0.000, 0.000, 0.000, 15:37:14.440, 1587847034440
47, 64.85, -326.26, 114.67, 19.73, 0.000, 0.000, 0.000, 15:37:14.442, 1587847034442
48, 313.54, -80.10, 245.23, 68.95, 0.000, 0.000, 0.000, 15:37:14.442, 1587847034442
49, 80.19, -321.36, 140.58, -27.10, 0.000, 0.000, 0.000, 15:37:14.454, 1587847034454
50, -62.39, -442.85, -32.15, -10.70, 0.000, 0.000, 0.000, 15:37:14.454, 1587847034454
51, 245.61, -169.80, 244.60, 72.27, 0.000, 0.000, 0.000, 15:37:14.470, 1587847034470
52, 128.49, -232.14, 232.86, 5.70, 0.000, 0.000, 0.000, 15:37:14.470, 1587847034470
53, -44.63, -432.47, -45.49, -39.67, 0.000, 0.000, 0.000, 15:37:14.472, 1587847034472
54, 138.51, -252.18, 187.53, 52.49, 0.000, 0.000, 0.000, 15:37:14.472, 1587847034472
55, 283.34, -101.35, 213.39, 47.06, 0.000, 0.000, 0.000, 15:37:14.484, 1587847034484
56, 2.16, -384.13, -10.94, -41.48, 0.000, 0.000, 0.000, 15:37:14.484, 1587847034484
57, 58.08, -310.12, 89.65, 21.43, 0.000, 0.000, 0.000, 15:37:14.500, 1587847034500
58, 214.29, -174.67, 280.99, 66.95, 0.000, 0.000, 0.000, 15:37:14.500, 1587847034500
59, 109.81, -285.15, 142.72, -20.11, 0.000, 0.000, 0.000, 15:37:14.501, 1587847034501
60, 28.47, -351.46, -82.07, -15.06, 0.000, 0.000, 0.000, 15:37:14.501, 1587847034501
61, 217.28, -184.94, 245.99, 75.41, 0.000, 0.000, 0.000, 15:37:14.514, 1587847034514
62, 167.30, -195.11, 122.43, 11.03, 0.000, 0.000, 0.000, 15:37:14.514, 1587847034514
63, -44.82, -434.58, 41.00, -36.68, 0.000, 0.000, 0.000, 15:37:14.530, 1587847034530
64, 157.58, -248.19, 146.48, 51.15, 0.000, 0.000, 0.000, 15:37:14.530, 1587847034530
65, 228.52, -138.95, 285.03, 44.18, 0.000, 0.000, 0.000, 15:37:14.531, 1587847034531
66, 95.56, -312.88, 31.63, -41.05, 0.000, 0.000, 0.000, 15:37:14.531, 1587847034531
67, 89.38, -326.84, -17.67, 21.58, 0.000, 0.000, 0.000, 15:37:14.545, 1587847034545
68, 185.55, -187.77, 324.17, 64.26, 0.000, 0.000, 0.000, 15:37:14.545, 1587847034545
69, 55.51, -288.12, 76.28, -22.56, 0.000, 0.000, 0.000, 15:37:14.560, 1587847034560
70, 41.95, -368.28, -21.60, -11.43, 0.000, 0.000, 0.000, 15:37:14.560, 1587847034560
71, 195.30, -193.21, 220.19, 70.48, 0.000, 0.000, 0.000, 15:37:14.561, 1587847034561
72, 183.55, -181.94, 237.92, 9.71, 0.000, 0.000, 0.000, 15:37:14.561, 1587847034561
73, 24.82, -376.26, -153.81, -39.74, 0.000, 0.000, 0.000, 15:37:14.574, 1587847034574
74, 101.07, -289.48, 263.26, 54.14, 0.000, 0.000, 0.000, 15:37:14.574, 1587847034574
75, 381.01, -8.67, 223.75, 40.43, 0.000, 0.000, 0.000, 15:37:14.592, 1587847034592
76, -113.11, -497.49, -93.33, -36.11, 0.000, 0.000, 0.000, 15:37:14.592, 1587847034592
77, 59.45, -350.93, 85.34, 25.28, 0.000, 0.000, 0.000, 15:37:14.596, 1587847034596
78, 256.40, -114.98, 283.71, 64.50, 0.000, 0.000, 0.000, 15:37:14.596, 1587847034596
79, 49.56, -293.07, 123.69, -19.08, 0.000, 0.000, 0.000, 15:37:14.604, 1587847034604
80, -18.72, -416.74, -26.01, -9.43, 0.000, 0.000, 0.000, 15:37:14.604, 1587847034604
81, 310.48, -55.93, 266.74, 68.91, 0.000, 0.000, 0.000, 15:37:14.620, 1587847034620
82, 148.74, -248.66, 66.45, 13.34, 0.000, 0.000, 0.000, 15:37:14.620, 1587847034620
83, -64.50, -485.57, 21.30, -34.69, 0.000, 0.000, 0.000, 15:37:14.621, 1587847034621
84, 134.36, -236.83, 158.52, 54.28, 0.000, 0.000, 0.000, 15:37:14.621, 1587847034621
85, 257.43, -139.43, 257.76, 43.98, 0.000, 0.000, 0.000, 15:37:14.634, 1587847034634
86, 20.64, -362.68, 76.04, -39.96, 0.000, 0.000, 0.000, 15:37:14.634, 1587847034634
87, 105.93, -284.06, -11.86, 21.85, 0.000, 0.000, 0.000, 15:37:14.650, 1587847034650
88, 215.24, -144.18, 257.19, 66.11, 0.000, 0.000, 0.000, 15:37:14.650, 1587847034650
89, 57.40, -337.63, 132.92, -24.08, 0.000, 0.000, 0.000, 15:37:14.651, 1587847034651
90, 46.57, -361.21, -37.06, -16.24, 0.000, 0.000, 0.000, 15:37:14.651, 1587847034651
91, 236.00, -148.03, 290.85, 72.61, 0.000, 0.000, 0.000, 15:37:14.666, 1587847034666
92, 112.16, -264.54, 122.01, 7.24, 0.000, 0.000, 0.000, 15:37:14.666, 1587847034666
93, -28.46, -410.43, -21.67, -38.92, 0.000, 0.000, 0.000, 15:37:14.681, 1587847034681
94, 189.22, -192.38, 102.82, 54.48, 0.000, 0.000, 0.000, 15:37:14.681, 1587847034681
95, 225.70, -169.82, 302.10, 47.32, 0.000, 0.000, 0.000, 15:37:14.681, 1587847034681
96, 15.08, -399.64, 10.42, -41.95, 0.000, 0.000, 0.000, 15:37:14.681, 1587847034681
97, 48.15, -295.01, 56.85, 24.00, 0.000, 0.000, 0.000, 15:37:14.694, 1587847034694
98, 263.82, -170.44, 277.76, 67.65, 0.000, 0.000, 0.000, 15:37:14.694, 1587847034694
99, 81.66, -296.56, 127.31, -20.40, 0.000, 0.000, 0.000, 15:37:14.710, 1587847034710
100, 64.37, -365.41, -42.54, -13.89, 0.000, 0.000, 0.000, 15:37:14.710, 1587847034710
101, 191.09, -148.59, 218.98, 70.36, 0.000, 0.000, 0.000, 15:37:14.710, 1587847034710
102, 205.72, -211.20, 138.90, 11.20, 0.000, 0.000, 0.000, 15:37:14.710, 1587847034710
103, -29.76, -443.12, -16.57, -40.09, 0.000, 0.000, 0.000, 15:37:14.724, 1587847034724
104, 103.46, -248.63, 131.89, 60.86, 0.000, 0.000, 0.000, 15:37:14.724, 1587847034724
105, 298.99, -137.36, 229.94, 43.60, 0.000, 0.000, 0.000, 15:37:14.739, 1587847034739
106, -30.18, -409.60, 42.90, -40.12, 0.000, 0.000, 0.000, 15:37:14.739, 1587847034739
107, 39.53, -325.48, 33.64, 19.96, 0.000, 0.000, 0.000, 15:37:14.740, 1587847034740
108, 300.44, -120.34, 248.44, 66.77, 0.000, 0.000, 0.000, 15:37:14.740, 1587847034740
109, 74.68, -328.16, 119.63, -26.80, 0.000, 0.000, 0.000, 15:37:14.753, 1587847034753
110, 2.98, -367.92, 10.11, -11.09, 0.000, 0.000, 0.000, 15:37:14.753, 1587847034753
111, 301.47, -114.00, 206.46, 70.45, 0.000, 0.000, 0.000, 15:37:14.769, 1587847034769
112, 142.23, -239.91, 188.32, 9.58, 0.000, 0.000, 0.000, 15:37:14.769, 1587847034769
113, -18.28, -408.79, -35.58, -39.68, 0.000, 0.000, 0.000, 15:37:14.771, 1587847034771
114, 137.77, -224.27, 161.82, 58.53, 0.000, 0.000, 0.000, 15:37:14.771, 1587847034771
115, 242.90, -187.18, 218.64, 46.48, 0.000, 0.000, 0.000, 15:37:14.783, 1587847034783
116, 51.27, -349.52, 8.50, -37.30, 0.000, 0.000, 0.000, 15:37:14.783, 1587847034783
117, 45.91, -334.99, -11.25, 22.19, 0.000, 0.000, 0.000, 15:37:14.799, 1587847034799
118, 264.56, -130.15, 303.22, 69.06, 0.000, 0.000, 0.000, 15:37:14.799, 1587847034799
119, 138.31, -253.91, 69.40, -23.73, 0.000, 0.000, 0.000, 15:37:14.800, 1587847034800
120, -23.45, -430.30, -22.19, -15.21, 0.000, 0.000, 0.000, 15:37:14.800, 1587847034800
121, 219.71, -144.44, 284.98, 69.83, 0.000, 0.000, 0.000, 15:37:14.814, 1587847034814
122, 184.65, -213.75, 157.11, 12.70, 0.000, 0.000, 0.000, 15:37:14.814, 1587847034814
123, -55.26, -434.92, -25.96, -34.63, 0.000, 0.000, 0.000, 15:37:14.829, 1587847034829
124, 212.39, -181.66, 117.31, 48.15, 0.000, 0.000, 0.000, 15:37:14.829, 1587847034829
125, 219.26, -204.50, 263.01, 44.61, 0.000, 0.000, 0.000, 15:37:14.829, 1587847034829
126, -5.20, -395.37, 42.28, -41.22, 0.000, 0.000, 0.000, 15:37:14.829, 1587847034829
127, 179.77, -224.15, 9.22, 25.47, 0.000, 0.000, 0.000, 15:37:14.844, 1587847034844
128, 217.38, -178.28, 257.50, 73.83, 0.000, 0.000, 0.000, 15:37:14.844, 1587847034844
129, 53.53, -322.37, 45.95, -24.17, 0.000, 0.000, 0.000, 15:37:14.860, 1587847034860
130, 16.21, -324.30, 39.12, -12.49, 0.000, 0.000, 0.000, 15:37:14.860, 1587847034860
131, 227.98, -194.33, 286.32, 76.16, 0.000, 0.000, 0.000, 15:37:14.861, 1587847034861
132, 206.07, -209.16, 175.41, 10.73, 0.000, 0.000, 0.000, 15:37:14.861, 1587847034861
133, -16.97, -405.55, -85.83, -32.60, 0.000, 0.000, 0.000, 15:37:14.874, 1587847034874
134, 154.54, -229.31, 139.67, 56.93, 0.000, 0.000, 0.000, 15:37:14.874, 1587847034874
135, 243.10, -118.12, 186.54, 42.30, 0.000, 0.000, 0.000, 15:37:14.890, 1587847034890
136, 100.72, -372.61, 44.43, -40.27, 0.000, 0.000, 0.000, 15:37:14.890, 1587847034890
137, 46.26, -315.00, 100.78, 21.71, 0.000, 0.000, 0.000, 15:37:14.891, 1587847034891
138, 341.45, -88.86, 207.22, 67.60, 0.000, 0.000, 0.000, 15:37:14.891, 1587847034891
139, 32.94, -323.29, 34.21, -23.03, 0.000, 0.000, 0.000, 15:37:14.904, 1587847034904
140, -83.53, -466.56, -4.89, -12.93, 0.000, 0.000, 0.000, 15:37:14.904, 1587847034904
141, 224.62, -168.14, 255.31, 71.65, 0.000, 0.000, 0.000, 15:37:14.920, 1587847034920
142, 196.26, -215.33, 209.68, 9.86, 0.000, 0.000, 0.000, 15:37:14.920, 1587847034920
143, -48.88, -397.12, -16.85, -36.77, 0.000, 0.000, 0.000, 15:37:14.921, 1587847034921
144, 180.50, -232.57, 163.38, 50.80, 0.000, 0.000, 0.000, 15:37:14.921, 1587847034921
145, 278.07, -141.32, 252.16, 43.99, 0.000, 0.000, 0.000, 15:37:14.934, 1587847034934
146, 16.87, -364.13, -36.99, -42.28, 0.000, 0.000, 0.000, 15:37:14.934, 1587847034934
147, 87.71, -296.05, 103.15, 25.87, 0.000, 0.000, 0.000, 15:37:14.950, 1587847034950
148, 318.21, -92.38, 229.41, 65.09, 0.000, 0.000, 0.000, 15:37:14.950, 1587847034950
149, 40.40, -330.93, 59.05, -15.89, 0.000, 0.000, 0.000, 15:37:14.951, 1587847034951
150, 2.59, -359.72, -25.91, -9.68, 0.000, 0.000, 0.000, 15:37:14.951, 1587847034951
151, 245.53, -159.72, 247.87, 71.31, 0.000, 0.000, 0.000, 15:37:14.964, 1587847034964
152, 165.10, -222.96, 195.64, 8.78, 0.000, 0.000, 0.000, 15:37:14.964, 1587847034964
153, -14.29, -411.84, -10.27, -38.25, 0.000, 0.000, 0.000, 15:37:14.980, 1587847034980
154, 130.40, -271.60, 115.24, 59.87, 0.000, 0.000, 0.000, 15:37:14.980, 1587847034980
155, 283.35, -131.20, 248.08, 46.09, 0.000, 0.000, 0.000, 15:37:14.981, 1587847034981
156, 24.68, -388.09, -7.27, -41.47, 0.000, 0.000, 0.000, 15:37:14.981, 1587847034981
157, 27.58, -333.62, 60.75, 20.00, 0.000, 0.000, 0.000, 15:37:14.995, 1587847034995
158, 279.97, -114.02, 280.05, 67.11, 0.000, 0.000, 0.000, 15:37:14.995, 1587847034995
159, 67.85, -314.20, 113.94, -22.80, 0.000, 0.000, 0.000, 15:37:15.010, 1587847035010
160, 10.22, -392.56, 7.45, -17.17, 0.000, 0.000, 0.000, 15:37:15.010, 1587847035010
161, 242.12, -161.45, 237.03, 74.12, 0.000, 0.000, 0.000, 15:37:15.011, 1587847035011
162, 195.90, -217.78, 179.49, 8.73, 0.000, 0.000, 0.000, 15:37:15.011, 1587847035011
163, -13.61, -422.59, -30.96, -34.05, 0.000, 0.000, 0.000, 15:37:15.024, 1587847035024
164, 183.88, -217.13, 175.85, 58.08, 0.000, 0.000, 0.000, 15:37:15.024, 1587847035024
165, 252.01, -145.01, 245.69, 42.58, 0.000, 0.000, 0.000, 15:37:15.041, 1587847035041
166, 23.98, -384.39, 3.65, -38.44, 0.000, 0.000, 0.000, 15:37:15.041, 1587847035041
167, 77.39, -330.51, 74.67, 22.88, 0.000, 0.000, 0.000, 15:37:15.044, 1587847035044
168, 289.74, -132.15, 263.36, 69.01, 0.000, 0.000, 0.000, 15:37:15.044, 1587847035044
169, 93.13, -320.63, 73.93, -23.62, 0.000, 0.000, 0.000, 15:37:15.054, 1587847035054
170, 10.28, -392.95, -3.43, -12.23, 0.000, 0.000, 0.000, 15:37:15.054, 1587847035054
171, 249.51, -153.31, 235.93, 73.25, 0.000, 0.000, 0.000, 15:37:15.070, 1587847035070
172, 192.01, -218.88, 171.18, 7.45, 0.000, 0.000, 0.000, 15:37:15.070, 1587847035070
173, -19.83, -425.54, -38.32, -39.93, 0.000, 0.000, 0.000, 15:37:15.071, 1587847035071
174, 178.19, -221.39, 160.48, 51.37, 0.000, 0.000, 0.000, 15:37:15.071, 1587847035071
175, 262.87, -146.06, 239.09, 43.18, 0.000, 0.000, 0.000, 15:37:15.084, 1587847035084
176, 21.69, -385.77, -11.89, -38.34, 0.000, 0.000, 0.000, 15:37:15.084, 1587847035084
177, 75.95, -327.69, 65.01, 21.02, 0.000, 0.000, 0.000, 15:37:15.100, 1587847035100
178, 282.61, -127.46, 255.36, 65.40, 0.000, 0.000, 0.000, 15:37:15.100, 1587847035100
179, 96.58, -301.01, 71.30, -21.57, 0.000, 0.000, 0.000, 15:37:15.101, 1587847035101
180, 14.08, -385.50, -11.74, -10.59, 0.000, 0.000, 0.000, 15:37:15.101, 1587847035101
181, 262.53, -148.66, 226.82, 72.08, 0.000, 0.000, 0.000, 15:37:15.114, 1587847035114
182, 195.57, -208.98, 158.45, 3.35, 0.000, 0.000, 0.000, 15:37:15.114, 1587847035114
183, -3.78, -406.12, -48.82, -35.04, 0.000, 0.000, 0.000, 15:37:15.130, 1587847035130
184, 186.20, -232.07, 142.01, 57.63, 0.000, 0.000, 0.000, 15:37:15.130, 1587847035130
185, 259.12, -144.33, 225.53, 44.99, 0.000, 0.000, 0.000, 15:37:15.131, 1587847035131
186, 19.39, -373.91, -15.71, -39.56, 0.000, 0.000, 0.000, 15:37:15.131, 1587847035131
187, 79.33, -312.39, 46.65, 25.56, 0.000, 0.000, 0.000, 15:37:15.144, 1587847035144
188, 282.96, -110.83, 248.67, 71.87, 0.000, 0.000, 0.000, 15:37:15.144, 1587847035144
189, 99.58, -298.66, 55.78, -20.33, 0.000, 0.000, 0.000, 15:37:15.160, 1587847035160
190, 19.01, -373.88, -25.63, -11.79, 0.000, 0.000, 0.000, 15:37:15.160, 1587847035160
191, 253.72, -142.64, 203.17, 72.74, 0.000, 0.000, 0.000, 15:37:15.161, 1587847035161
192, 195.62, -205.31, 145.33, 9.04, 0.000, 0.000, 0.000, 15:37:15.161, 1587847035161
193, -16.82, -402.33, -60.98, -38.55, 0.000, 0.000, 0.000, 15:37:15.175, 1587847035175
194, 182.29, -214.74, 140.81, 55.56, 0.000, 0.000, 0.000, 15:37:15.175, 1587847035175
195, 268.02, -134.69, 212.36, 44.57, 0.000, 0.000, 0.000, 15:37:15.190, 1587847035190
196, 31.15, -368.66, -24.07, -44.72, 0.000, 0.000, 0.000, 15:37:15.190, 1587847035190
197, 88.59, -303.02, 40.57, 24.94, 0.000, 0.000, 0.000, 15:37:15.191, 1587847035191
198, 283.92, -110.14, 234.84, 66.19, 0.000, 0.000, 0.000, 15:37:15.191, 1587847035191
199, 97.41, -287.56, 54.57, -18.66, 0.000, 0.000, 0.000, 15:37:15.205, 1587847035205
200, 27.92, -374.80, -38.38, -8.22, 0.000, 0.000, 0.000, 15:37:15.205, 1587847035205
0, 261.57, -139.41, 193.52, 70.75, 0.000, 0.000, 0.000, 15:37:15.206, 1587847035206
1, 206.34, -191.39, 144.04, 8.81, 0.000, 0.000, 0.000, 15:37:15.219, 1587847035219
2, -6.38, -400.00, -66.20, -40.69, 0.000, 0.000, 0.000, 15:37:15.219, 1587847035219
3, 184.21, -210.24, 130.50, 54.38, 0.000, 0.000, 0.000, 15:37:15.237, 1587847035237
4, 267.07, -125.19, 215.24, 44.25, 0.000, 0.000, 0.000, 15:37:15.237, 1587847035237
5, 27.57, -365.17, -38.63, -37.31, 0.000, 0.000, 0.000, 15:37:15.238, 1587847035238
6, 96.44, -298.29, 29.97, 23.75, 0.000, 0.000, 0.000, 15:37:15.238, 1587847035238
7, 296.94, -106.29, 232.80, 65.31, 0.000, 0.000, 0.000, 15:37:15.249, 1587847035249
8, 108.82, -286.29, 33.34, -28.13, 0.000, 0.000, 0.000, 15:37:15.249, 1587847035249
9, 28.94, -368.65, -50.60, -11.25, 0.000, 0.000, 0.000, 15:37:15.265, 1587847035265
10, 270.77, -124.22, 204.07, 65.42, 0.000, 0.000, 0.000, 15:37:15.265, 1587847035265
11, 215.55, -179.37, 142.23, 13.67, 0.000, 0.000, 0.000, 15:37:15.266, 1587847035266
12, -2.86, -403.82, -69.36, -35.61, 0.000, 0.000, 0.000, 15:37:15.266, 1587847035266
13, 189.83, -206.53, 126.35, 57.04, 0.000, 0.000, 0.000, 15:37:15.279, 1587847035279
14, 278.74, -118.48, 205.66, 45.90, 0.000, 0.000, 0.000, 15:37:15.279, 1587847035279
15, 18.79, -371.21, -47.44, -38.43, 0.000, 0.000, 0.000, 15:37:15.295, 1587847035295
16, 78.22, -310.87, 24.08, 22.25, 0.000, 0.000, 0.000, 15:37:15.295, 1587847035295
17, 317.51, -75.91, 246.06, 73.52, 0.000, 0.000, 0.000, 15:37:15.297, 1587847035297
18, 115.21, -279.57, 39.36, -23.06, 0.000, 0.000, 0.000, 15:37:15.297, 1587847035297
19, 25.79, -373.97, -42.95, -11.58, 0.000, 0.000, 0.000, 15:37:15.309, 1587847035309
20, 276.23, -124.76, 201.56, 68.51, 0.000, 0.000, 0.000, 15:37:15.309, 1587847035309
21, 204.24, -194.90, 129.10, 10.23, 0.000, 0.000, 0.000, 15:37:15.325, 1587847035325
22, -2.06, -396.14, -68.42, -32.72, 0.000, 0.000, 0.000, 15:37:15.325, 1587847035325
23, 204.38, -191.87, 131.98, 56.07, 0.000, 0.000, 0.000, 15:37:15.327, 1587847035327
24, 276.42, -121.82, 199.81, 42.32, 0.000, 0.000, 0.000, 15:37:15.327, 1587847035327
25, 29.59, -363.68, -45.18, -40.88, 0.000, 0.000, 0.000, 15:37:15.339, 1587847035339
26, 97.98, -299.81, 37.53, 23.72, 0.000, 0.000, 0.000, 15:37:15.339, 1587847035339
27, 304.29, -97.15, 227.31, 67.47, 0.000, 0.000, 0.000, 15:37:15.354, 1587847035354
28, 109.23, -273.76, 37.02, -23.82, 0.000, 0.000, 0.000, 15:37:15.354, 1587847035354
29, 15.87, -369.33, -54.13, -10.93, 0.000, 0.000, 0.000, 15:37:15.356, 1587847035356
30, 258.53, -120.40, 208.38, 71.61, 0.000, 0.000, 0.000, 15:37:15.356, 1587847035356
31, 195.61, -196.77, 133.69, 13.43, 0.000, 0.000, 0.000, 15:37:15.368, 1587847035368
32, 7.09, -396.86, -59.55, -39.64, 0.000, 0.000, 0.000, 15:37:15.368, 1587847035368
33, 194.65, -202.43, 128.34, 58.94, 0.000, 0.000, 0.000, 15:37:15.385, 1587847035385
34, 268.49, -137.08, 205.22, 48.55, 0.000, 0.000, 0.000, 15:37:15.385, 1587847035385
35, 37.70, -358.73, -28.85, -39.34, 0.000, 0.000, 0.000, 15:37:15.385, 1587847035385
36, 91.29, -293.98, 39.76, 20.21, 0.000, 0.000, 0.000, 15:37:15.385, 1587847035385
37, 290.20, -104.25, 237.48, 64.18, 0.000, 0.000, 0.000, 15:37:15.402, 1587847035402
38, 109.32, -285.74, 47.52, -21.59, 0.000, 0.000, 0.000, 15:37:15.402, 1587847035402
39, 21.50, -366.35, -42.96, -11.93, 0.000, 0.000, 0.000, 15:37:15.414, 1587847035414
40, 264.64, -128.21, 206.58, 70.94, 0.000, 0.000, 0.000, 15:37:15.414, 1587847035414
41, 200.91, -196.86, 138.27, 11.90, 0.000, 0.000, 0.000, 15:37:15.416, 1587847035416
42, -1.51, -395.71, -62.87, -34.34, 0.000, 0.000, 0.000, 15:37:15.416, 1587847035416
43, 198.41, -206.17, 133.46, 55.13, 0.000, 0.000, 0.000, 15:37:15.429, 1587847035429
44, 276.69, -123.80, 213.68, 48.21, 0.000, 0.000, 0.000, 15:37:15.429, 1587847035429
45, 33.34, -355.17, -31.76, -40.11, 0.000, 0.000, 0.000, 15:37:15.444, 1587847035444
46, 81.76, -300.51, 23.36, 26.04, 0.000, 0.000, 0.000, 15:37:15.444, 1587847035444
47, 304.70, -91.25, 249.13, 68.48, 0.000, 0.000, 0.000, 15:37:15.445, 1587847035445
48, 97.28, -290.13, 46.08, -19.95, 0.000, 0.000, 0.000, 15:37:15.445, 1587847035445
49, 31.88, -357.47, -30.92, -9.32, 0.000, 0.000, 0.000, 15:37:15.459, 1587847035459
50, 264.65, -142.40, 195.38, 74.03, 0.000, 0.000, 0.000, 15:37:15.459, 1587847035459
51, 195.79, -212.33, 133.37, 9.36, 0.000, 0.000, 0.000, 15:37:15.475, 1587847035475
52, 1.28, -387.87, -64.30, -40.30, 0.000, 0.000, 0.000, 15:37:15.475, 1587847035475
53, 200.54, -184.72, 133.93, 58.66, 0.000, 0.000, 0.000, 15:37:15.476, 1587847035476
54, 266.28, -121.48, 204.92, 40.21, 0.000, 0.000, 0.000, 15:37:15.476, 1587847035476
55, 33.97, -348.26, -25.21, -40.23, 0.000, 0.000, 0.000, 15:37:15.489, 1587847035489
56, 80.40, -299.50, 26.72, 24.30, 0.000, 0.000, 0.000, 15:37:15.489, 1587847035489
57, 297.59, -95.45, 236.50, 66.48, 0.000, 0.000, 0.000, 15:37:15.505, 1587847035505
58, 102.48, -290.60, 40.46, -24.03, 0.000, 0.000, 0.000, 15:37:15.505, 1587847035505
59, 18.88, -372.80, -35.20, -12.03, 0.000, 0.000, 0.000, 15:37:15.506, 1587847035506
60, 257.62, -140.66, 195.79, 78.38, 0.000, 0.000, 0.000, 15:37:15.506, 1587847035506
61, 209.43, -183.01, 145.70, 7.28, 0.000, 0.000, 0.000, 15:37:15.519, 1587847035519
62, -4.50, -401.74, -74.14, -37.94, 0.000, 0.000, 0.000, 15:37:15.519, 1587847035519
63, 187.23, -198.99, 136.35, 58.07, 0.000, 0.000, 0.000, 15:37:15.535, 1587847035535
64, 260.28, -127.88, 204.10, 37.76, 0.000, 0.000, 0.000, 15:37:15.535, 1587847035535
65, 28.09, -361.11, -36.10, -40.91, 0.000, 0.000, 0.000, 15:37:15.535, 1587847035535
66, 79.50, -302.17, 30.60, 21.61, 0.000, 0.000, 0.000, 15:37:15.535, 1587847035535
67, 294.47, -106.07, 240.47, 65.52, 0.000, 0.000, 0.000, 15:37:15.549, 1587847035549
68, 93.89, -296.30, 27.51, -22.50, 0.000, 0.000, 0.000, 15:37:15.549, 1587847035549
69, 27.51, -359.20, -27.54, -11.63, 0.000, 0.000, 0.000, 15:37:15.565, 1587847035565
70, 253.95, -141.31, 195.68, 74.89, 0.000, 0.000, 0.000, 15:37:15.565, 1587847035565
71, 187.59, -197.36, 140.56, 9.45, 0.000, 0.000, 0.000, 15:37:15.565, 1587847035565
72, -16.69, -404.14, -71.96, -37.38, 0.000, 0.000, 0.000, 15:37:15.565, 1587847035565
73, 192.75, -200.44, 133.41, 55.40, 0.000, 0.000, 0.000, 15:37:15.579, 1587847035579
74, 264.19, -128.30, 207.08, 42.78, 0.000, 0.000, 0.000, 15:37:15.579, 1587847035579
75, 31.77, -359.19, -29.46, -38.12, 0.000, 0.000, 0.000, 15:37:15.595, 1587847035595
76, 86.01, -301.64, 29.04, 21.35, 0.000, 0.000, 0.000, 15:37:15.595, 1587847035595
77, 291.37, -104.10, 233.79, 64.59, 0.000, 0.000, 0.000, 15:37:15.595, 1587847035595
78, 94.54, -294.61, 41.35, -23.72, 0.000, 0.000, 0.000, 15:37:15.595, 1587847035595
79, 19.17, -367.97, -32.22, -12.72, 0.000, 0.000, 0.000, 15:37:15.608, 1587847035608
80, 263.32, -135.68, 205.74, 71.19, 0.000, 0.000, 0.000, 15:37:15.608, 1587847035608
81, 197.04, -192.78, 140.69, 6.97, 0.000, 0.000, 0.000, 15:37:15.624, 1587847035624
82, -13.93, -401.77, -66.03, -33.92, 0.000, 0.000, 0.000, 15:37:15.624, 1587847035624
83, 191.66, -195.48, 145.42, 55.75, 0.000, 0.000, 0.000, 15:37:15.626, 1587847035626
84, 265.78, -132.66, 209.25, 43.02, 0.000, 0.000, 0.000, 15:37:15.626, 1587847035626
85, 26.77, -362.66, -31.49, -41.49, 0.000, 0.000, 0.000, 15:37:15.639, 1587847035639
86, 94.03, -291.33, 44.79, 20.26, 0.000, 0.000, 0.000, 15:37:15.639, 1587847035639
87, 287.48, -98.17, 241.45, 68.11, 0.000, 0.000, 0.000, 15:37:15.654, 1587847035654
88, 97.35, -292.56, 34.93, -25.38, 0.000, 0.000, 0.000, 15:37:15.654, 1587847035654
89, 33.32, -357.16, -34.26, -12.54, 0.000, 0.000, 0.000, 15:37:15.655, 1587847035655
90, 262.66, -131.47, 186.73, 76.95, 0.000, 0.000, 0.000, 15:37:15.655, 1587847035655
91, 214.64, -196.06, 131.26, 9.24, 0.000, 0.000, 0.000, 15:37:15.669, 1587847035669
92, 4.53, -390.39, -70.42, -30.72, 0.000, 0.000, 0.000, 15:37:15.669, 1587847035669
93, 201.13, -197.11, 129.42, 57.75, 0.000, 0.000, 0.000, 15:37:15.684, 1587847035684
94, 263.00, -127.70, 195.46, 43.20, 0.000, 0.000, 0.000, 15:37:15.684, 1587847035684
95, 36.28, -358.48, -32.60, -36.12, 0.000, 0.000, 0.000, 15:37:15.686, 1587847035686
96, 90.93, -289.82, 32.39, 18.71, 0.000, 0.000, 0.000, 15:37:15.686, 1587847035686
97, 297.85, -90.56, 240.00, 65.80, 0.000, 0.000, 0.000, 15:37:15.699, 1587847035699
98, 98.71, -290.07, 33.60, -26.00, 0.000, 0.000, 0.000, 15:37:15.699, 1587847035699
99, 26.51, -361.93, -42.27, -8.78, 0.000, 0.000, 0.000, 15:37:15.715, 1587847035715
100, 256.39, -136.15, 193.47, 71.57, 0.000, 0.000, 0.000, 15:37:15.715, 1587847035715
101, 199.51, -197.87, 132.90, 9.32, 0.000, 0.000, 0.000, 15:37:15.715, 1587847035715
102, -16.58, -399.20, -67.23, -36.46, 0.000, 0.000, 0.000, 15:37:15.715, 1587847035715
103, 195.19, -197.67, 137.82, 54.67, 0.000, 0.000, 0.000, 15:37:15.729, 1587847035729
104, 262.55, -132.11, 203.55, 44.84, 0.000, 0.000, 0.000, 15:37:15.729, 1587847035729
105, 28.99, -359.31, -31.29, -37.66, 0.000, 0.000, 0.000, 15:37:15.745, 1587847035745
106, 83.86, -318.50, 30.78, 24.80, 0.000, 0.000, 0.000, 15:37:15.745, 1587847035745
107, 292.70, -104.82, 230.23, 66.37, 0.000, 0.000, 0.000, 15:37:15.746, 1587847035746
108, 89.99, -296.91, 34.63, -25.29, 0.000, 0.000, 0.000, 15:37:15.746, 1587847035746
109, 20.32, -368.61, -35.16, -11.31, 0.000, 0.000, 0.000, 15:37:15.759, 1587847035759
110, 263.02, -129.46, 209.21, 68.65, 0.000, 0.000, 0.000, 15:37:15.759, 1587847035759
111, 187.03, -200.47, 126.09, 12.74, 0.000, 0.000, 0.000, 15:37:15.775, 1587847035775
112, -12.07, -399.90, -60.40, -35.03, 0.000, 0.000, 0.000, 15:37:15.775, 1587847035775
113, 193.19, -207.64, 127.47, 54.27, 0.000, 0.000, 0.000, 15:37:15.775, 1587847035775
114, 280.43, -128.87, 208.25, 41.72, 0.000, 0.000, 0.000, 15:37:15.775, 1587847035775
115, 22.82, -367.17, -33.52, -38.08, 0.000, 0.000, 0.000, 15:37:15.788, 1587847035788
116, 86.69, -301.18, 41.94, 26.14, 0.000, 0.000, 0.000, 15:37:15.788, 1587847035788
117, 293.33, -103.28, 237.61, 65.10, 0.000, 0.000, 0.000, 15:37:15.804, 1587847035804
118, 103.15, -289.91, 46.51, -19.88, 0.000, 0.000, 0.000, 15:37:15.804, 1587847035804
119, 11.72, -378.50, -41.71, -11.06, 0.000, 0.000, 0.000, 15:37:15.805, 1587847035805
120, 254.41, -138.33, 202.35, 71.85, 0.000, 0.000, 0.000, 15:37:15.805, 1587847035805
121, 194.68, -196.27, 143.31, 7.35, 0.000, 0.000, 0.000, 15:37:15.819, 1587847035819
122, -8.59, -398.87, -66.38, -37.08, 0.000, 0.000, 0.000, 15:37:15.819, 1587847035819
123, 186.17, -208.35, 129.97, 56.00, 0.000, 0.000, 0.000, 15:37:15.835, 1587847035835
124, 261.99, -137.15, 207.86, 43.01, 0.000, 0.000, 0.000, 15:37:15.835, 1587847035835
125, 24.97, -362.81, -24.69, -38.37, 0.000, 0.000, 0.000, 15:37:15.835, 1587847035835
126, 97.98, -310.76, 33.35, 22.15, 0.000, 0.000, 0.000, 15:37:15.835, 1587847035835
127, 288.05, -106.98, 240.57, 67.04, 0.000, 0.000, 0.000, 15:37:15.849, 1587847035849
128, 106.65, -289.05, 44.50, -23.65, 0.000, 0.000, 0.000, 15:37:15.849, 1587847035849
129, 17.44, -368.51, -36.62, -12.85, 0.000, 0.000, 0.000, 15:37:15.864, 1587847035864
130, 264.15, -136.98, 193.21, 71.31, 0.000, 0.000, 0.000, 15:37:15.864, 1587847035864
131, 203.11, -193.07, 142.47, 8.44, 0.000, 0.000, 0.000, 15:37:15.864, 1587847035864
132, -19.95, -412.45, -73.25, -34.35, 0.000, 0.000, 0.000, 15:37:15.864, 1587847035864
133, 196.22, -203.79, 141.22, 53.47, 0.000, 0.000, 0.000, 15:37:15.879, 1587847035879
134, 260.33, -138.35, 200.68, 40.70, 0.000, 0.000, 0.000, 15:37:15.879, 1587847035879
135, 21.82, -367.79, -31.80, -39.92, 0.000, 0.000, 0.000, 15:37:15.894, 1587847035894
136, 80.79, -305.42, 33.28, 21.15, 0.000, 0.000, 0.000, 15:37:15.894, 1587847035894
137, 288.06, -108.45, 239.36, 72.30, 0.000, 0.000, 0.000, 15:37:15.895, 1587847035895
138, 94.88, -298.52, 40.66, -24.02, 0.000, 0.000, 0.000, 15:37:15.895, 1587847035895
139, 17.47, -378.55, -35.66, -9.65, 0.000, 0.000, 0.000, 15:37:15.909, 1587847035909
140, 262.20, -132.64, 206.09, 74.31, 0.000, 0.000, 0.000, 15:37:15.909, 1587847035909
141, 196.95, -197.04, 141.82, 4.63, 0.000, 0.000, 0.000, 15:37:15.926, 1587847035926
142, -12.22, -402.55, -56.24, -33.99, 0.000, 0.000, 0.000, 15:37:15.926, 1587847035926
143, 192.55, -207.15, 143.90, 55.72, 0.000, 0.000, 0.000, 15:37:15.926, 1587847035926
144, 258.09, -141.63, 207.65, 44.75, 0.000, 0.000, 0.000, 15:37:15.926, 1587847035926
145, 23.06, -363.18, -17.81, -43.94, 0.000, 0.000, 0.000, 15:37:15.939, 1587847035939
146, 81.54, -306.71, 34.35, 25.60, 0.000, 0.000, 0.000, 15:37:15.939, 1587847035939
147, 287.31, -110.10, 237.56, 71.39, 0.000, 0.000, 0.000, 15:37:15.954, 1587847035954
148, 94.69, -302.11, 46.00, -20.83, 0.000, 0.000, 0.000, 15:37:15.954, 1587847035954
149, 26.69, -368.42, -24.25, -10.70, 0.000, 0.000, 0.000, 15:37:15.955, 1587847035955
150, 266.60, -142.13, 211.68, 69.81, 0.000, 0.000, 0.000, 15:37:15.955, 1587847035955
151, 210.47, -196.58, 156.17, 11.68, 0.000, 0.000, 0.000, 15:37:15.968, 1587847035968
152, -23.11, -404.33, -60.76, -37.13, 0.000, 0.000, 0.000, 15:37:15.968, 1587847035968
153, 183.38, -212.49, 130.62, 56.12, 0.000, 0.000, 0.000, 15:37:15.984, 1587847035984
154, 270.84, -130.84, 215.89, 45.16, 0.000, 0.000, 0.000, 15:37:15.984, 1587847035984
155, 22.48, -368.28, -20.49, -38.47, 0.000, 0.000, 0.000, 15:37:15.985, 1587847035985
156, 84.99, -298.81, 39.90, 22.78, 0.000, 0.000, 0.000, 15:37:15.985, 1587847035985
157, 298.02, -104.20, 237.50, 69.46, 0.000, 0.000, 0.000, 15:37:15.999, 1587847035999
158, 104.39, -294.24, 57.74, -25.83, 0.000, 0.000, 0.000, 15:37:15.999, 1587847035999
159, 4.50, -383.51, -38.33, -9.94, 0.000, 0.000, 0.000, 15:37:16.014, 1587847036014
160, 256.62, -144.36, 210.90, 74.09, 0.000, 0.000, 0.000, 15:37:16.014, 1587847036014
161, 193.00, -198.66, 142.88, 9.09, 0.000, 0.000, 0.000, 15:37:16.015, 1587847036015
162, -24.45, -408.17, -65.03, -35.72, 0.000, 0.000, 0.000, 15:37:16.015, 1587847036015
163, 186.53, -206.17, 142.80, 55.26, 0.000, 0.000, 0.000, 15:37:16.045, 1587847036045
164, 268.52, -127.03, 218.46, 40.26, 0.000, 0.000, 0.000, 15:37:16.045, 1587847036045
165, 25.95, -356.73, -20.90, -35.62, 0.000, 0.000, 0.000, 15:37:16.046, 1587847036046
166, 85.75, -296.72, 46.16, 22.79, 0.000, 0.000, 0.000, 15:37:16.046, 1587847036046
167, 284.46, -107.69, 236.13, 68.19, 0.000, 0.000, 0.000, 15:37:16.046, 1587847036046
168, 100.08, -297.31, 44.56, -21.86, 0.000, 0.000, 0.000, 15:37:16.046, 1587847036046
169, 13.37, -375.59, -34.75, -16.16, 0.000, 0.000, 0.000, 15:37:16.059, 1587847036059
170, 247.98, -139.58, 206.36, 70.84, 0.000, 0.000, 0.000, 15:37:16.059, 1587847036059
171, 206.10, -197.31, 148.37, 7.75, 0.000, 0.000, 0.000, 15:37:16.075, 1587847036075
172, -3.71, -405.70, -65.62, -34.98, 0.000, 0.000, 0.000, 15:37:16.075, 1587847036075
173, 183.04, -211.06, 137.57, 56.69, 0.000, 0.000, 0.000, 15:37:16.076, 1587847036076
174, 253.25, -138.13, 213.41, 43.42, 0.000, 0.000, 0.000, 15:37:16.076, 1587847036076
175, 15.73, -368.42, -21.65, -41.73, 0.000, 0.000, 0.000, 15:37:16.088, 1587847036088
176, 97.42, -293.07, 47.83, 25.75, 0.000, 0.000, 0.000, 15:37:16.088, 1587847036088
177, 294.99, -105.10, 245.78, 66.05, 0.000, 0.000, 0.000, 15:37:16.104, 1587847036104
178, 95.69, -302.61, 47.44, -25.35, 0.000, 0.000, 0.000, 15:37:16.104, 1587847036104
179, 14.33, -377.87, -38.01, -9.14, 0.000, 0.000, 0.000, 15:37:16.105, 1587847036105
180, 260.87, -136.47, 204.40, 74.64, 0.000, 0.000, 0.000, 15:37:16.105, 1587847036105
181, 188.61, -202.12, 140.01, 5.55, 0.000, 0.000, 0.000, 15:37:16.118, 1587847036118
182, -10.65, -392.30, -48.84, -31.01, 0.000, 0.000, 0.000, 15:37:16.118, 1587847036118
183, 180.04, -206.93, 136.00, 60.33, 0.000, 0.000, 0.000, 15:37:16.135, 1587847036135
184, 275.05, -125.53, 217.14, 44.14, 0.000, 0.000, 0.000, 15:37:16.135, 1587847036135
185, 30.57, -365.29, -24.70, -42.30, 0.000, 0.000, 0.000, 15:37:16.135, 1587847036135
186, 84.48, -303.77, 40.33, 22.36, 0.000, 0.000, 0.000, 15:37:16.135, 1587847036135
187, 298.44, -103.09, 251.46, 65.03, 0.000, 0.000, 0.000, 15:37:16.148, 1587847036148
188, 105.02, -295.11, 51.86, -19.95, 0.000, 0.000, 0.000, 15:37:16.148, 1587847036148
189, 23.36, -374.87, -33.27, -12.39, 0.000, 0.000, 0.000, 15:37:16.165, 1587847036165
190, 261.05, -130.07, 211.79, 70.82, 0.000, 0.000, 0.000, 15:37:16.165, 1587847036165
191, 187.99, -196.49, 138.08, 4.15, 0.000, 0.000, 0.000, 15:37:16.165, 1587847036165
192, -3.46, -394.90, -63.14, -35.15, 0.000, 0.000, 0.000, 15:37:16.165, 1587847036165
193, 184.48, -207.19, 133.23, 59.65, 0.000, 0.000, 0.000, 15:37:16.179, 1587847036179
194, 271.75, -134.05, 214.42, 44.55, 0.000, 0.000, 0.000, 15:37:16.179, 1587847036179
195, 19.44, -367.89, -26.60, -41.24, 0.000, 0.000, 0.000, 15:37:16.194, 1587847036194
196, 91.15, -300.05, 42.10, 25.61, 0.000, 0.000, 0.000, 15:37:16.194, 1587847036194
197, 280.43, -109.26, 237.04, 65.72, 0.000, 0.000, 0.000, 15:37:16.210, 1587847036210
198, 97.92, -294.23, 47.53, -24.82, 0.000, 0.000, 0.000, 15:37:16.210, 1587847036210
199, 8.89, -380.47, -38.52, -11.59, 0.000, 0.000, 0.000, 15:37:16.210, 1587847036210
200, 261.36, -135.36, 212.23, 72.48, 0.000, 0.000, 0.000, 15:37:16.210, 1587847036210
