%OpenBCI Raw EEG Data
%Number of channels = 4
%Sample Rate = 200.0 Hz
%First Column = SampleIndex
%Last Column = Timestamp 
%Other Columns = EEG data in microvolts followed by Accel Data (in G) interleaved with Aux Data
0, 134.92, -244.06, 113.81, 18.42, 0.000, 0.000, 0.000, 15:44:42.738, 1587847482738
1, 118.93, -243.51, 95.47, 7.15, 0.000, 0.000, 0.000, 15:44:42.742, 1587847482742
2, 124.57, -245.52, 105.32, 13.84, 0.000, 0.000, 0.000, 15:44:42.742, 1587847482742
3, 120.88, -246.16, 92.96, 24.66, 0.000, 0.000, 0.000, 15:44:42.752, 1587847482752
4, 131.33, -246.95, 101.23, 14.82, 0.000, 0.000, 0.000, 15:44:42.752, 1587847482752
5, 124.99, -262.45, 99.86, 10.15, 0.000, 0.000, 0.000, 15:44:42.753, 1587847482753
6, 131.27, -235.98, 99.73, 22.74, 0.000, 0.000, 0.000, 15:44:42.753, 1587847482753
7, 148.85, -219.74, 111.83, 15.61, 0.000, 0.000, 0.000, 15:44:42.767, 1587847482767
8, 96.00, -257.60, 90.96, 5.88, 0.000, 0.000, 0.000, 15:44:42.767, 1587847482767
9, 111.19, -253.93, 98.16, 19.31, 0.000, 0.000, 0.000, 15:44:42.782, 1587847482782
10, 143.50, -231.74, 104.96, 24.84, 0.000, 0.000, 0.000, 15:44:42.782, 1587847482782
11, 135.76, -244.82, 99.98, 8.79, 0.000, 0.000, 0.000, 15:44:42.783, 1587847482783
12, 129.02, -246.72, 102.71, 17.02, 0.000, 0.000, 0.000, 15:44:42.783, 1587847482783
13, 126.20, -250.01, 94.88, 23.12, 0.000, 0.000, 0.000, 15:44:42.796, 1587847482796
14, 141.22, -242.26, 103.57, 11.11, 0.000, 0.000, 0.000, 15:44:42.796, 1587847482796
15, 121.43, -259.37, 83.76, 12.96, 0.000, 0.000, 0.000, 15:44:42.813, 1587847482813
16, 119.69, -246.61, 103.91, 21.89, 0.000, 0.000, 0.000, 15:44:42.813, 1587847482813
17, 126.50, -238.17, 97.63, 16.75, 0.000, 0.000, 0.000, 15:44:42.827, 1587847482827
18, 126.33, -243.54, 103.98, 11.61, 0.000, 0.000, 0.000, 15:44:42.827, 1587847482827
19, 128.56, -245.43, 94.16, 17.52, 0.000, 0.000, 0.000, 15:44:42.828, 1587847482828
20, 144.33, -240.90, 99.91, 21.25, 0.000, 0.000, 0.000, 15:44:42.828, 1587847482828
21, 126.29, -246.11, 93.72, 7.40, 0.000, 0.000, 0.000, 15:44:42.843, 1587847482843
22, 133.67, -240.53, 92.95, 13.90, 0.000, 0.000, 0.000, 15:44:42.843, 1587847482843
23, 136.62, -240.97, 85.17, 21.64, 0.000, 0.000, 0.000, 15:44:42.848, 1587847482848
24, 131.42, -242.05, 112.70, 14.13, 0.000, 0.000, 0.000, 15:44:42.848, 1587847482848
25, 109.88, -255.00, 100.18, 9.14, 0.000, 0.000, 0.000, 15:44:42.857, 1587847482857
26, 121.20, -240.32, 119.43, 17.48, 0.000, 0.000, 0.000, 15:44:42.857, 1587847482857
27, 116.21, -242.40, 129.11, 16.51, 0.000, 0.000, 0.000, 15:44:42.877, 1587847482877
28, 97.51, -256.44, 116.80, 10.04, 0.000, 0.000, 0.000, 15:44:42.877, 1587847482877
29, 91.93, -257.53, 119.92, 16.98, 0.000, 0.000, 0.000, 15:44:42.887, 1587847482887
30, 116.74, -231.03, 149.93, 24.94, 0.000, 0.000, 0.000, 15:44:42.887, 1587847482887
31, 104.78, -248.21, 134.14, 11.60, 0.000, 0.000, 0.000, 15:44:42.888, 1587847482888
32, 81.24, -261.10, 116.34, 11.16, 0.000, 0.000, 0.000, 15:44:42.888, 1587847482888
33, 103.09, -246.09, 122.10, 23.13, 0.000, 0.000, 0.000, 15:44:42.903, 1587847482903
34, 110.67, -243.66, 128.88, 17.88, 0.000, 0.000, 0.000, 15:44:42.903, 1587847482903
35, 99.98, -244.47, 124.89, 15.06, 0.000, 0.000, 0.000, 15:44:42.905, 1587847482905
36, 102.41, -245.22, 116.70, 23.17, 0.000, 0.000, 0.000, 15:44:42.905, 1587847482905
37, 117.19, -244.22, 138.80, 19.57, 0.000, 0.000, 0.000, 15:44:42.919, 1587847482919
38, 108.82, -249.03, 125.25, 13.17, 0.000, 0.000, 0.000, 15:44:42.919, 1587847482919
39, 106.85, -251.10, 106.05, 16.89, 0.000, 0.000, 0.000, 15:44:42.932, 1587847482932
40, 111.07, -232.80, 136.24, 25.76, 0.000, 0.000, 0.000, 15:44:42.932, 1587847482932
41, 111.16, -245.14, 130.66, 15.28, 0.000, 0.000, 0.000, 15:44:42.948, 1587847482948
42, 92.86, -258.37, 102.65, 14.88, 0.000, 0.000, 0.000, 15:44:42.948, 1587847482948
43, 129.08, -230.15, 131.72, 20.61, 0.000, 0.000, 0.000, 15:44:42.950, 1587847482950
44, 128.47, -238.63, 125.83, 16.38, 0.000, 0.000, 0.000, 15:44:42.950, 1587847482950
45, 107.48, -255.28, 108.14, 6.40, 0.000, 0.000, 0.000, 15:44:42.962, 1587847482962
46, 125.95, -236.46, 121.25, 21.04, 0.000, 0.000, 0.000, 15:44:42.962, 1587847482962
47, 124.33, -236.11, 123.29, 14.96, 0.000, 0.000, 0.000, 15:44:42.965, 1587847482965
48, 116.86, -249.53, 115.87, 6.72, 0.000, 0.000, 0.000, 15:44:42.965, 1587847482965
49, 106.90, -250.62, 115.82, 14.38, 0.000, 0.000, 0.000, 15:44:42.976, 1587847482976
50, 113.25, -241.06, 108.09, 16.97, 0.000, 0.000, 0.000, 15:44:42.976, 1587847482976
51, 103.35, -259.12, 105.98, 8.90, 0.000, 0.000, 0.000, 15:44:42.992, 1587847482992
52, 105.66, -245.62, 108.51, 16.82, 0.000, 0.000, 0.000, 15:44:42.992, 1587847482992
53, 125.63, -229.50, 117.70, 24.32, 0.000, 0.000, 0.000, 15:44:42.997, 1587847482997
54, 122.87, -245.12, 119.47, 12.78, 0.000, 0.000, 0.000, 15:44:42.997, 1587847482997
55, 103.21, -262.88, 90.77, 5.60, 0.000, 0.000, 0.000, 15:44:43.006, 1587847483006
56, 112.80, -246.38, 112.17, 18.39, 0.000, 0.000, 0.000, 15:44:43.006, 1587847483006
57, 113.65, -242.91, 113.72, 22.01, 0.000, 0.000, 0.000, 15:44:43.023, 1587847483023
58, 108.53, -250.28, 113.72, 11.11, 0.000, 0.000, 0.000, 15:44:43.023, 1587847483023
59, 109.53, -251.01, 113.68, 18.31, 0.000, 0.000, 0.000, 15:44:43.024, 1587847483024
60, 132.20, -236.31, 118.30, 23.39, 0.000, 0.000, 0.000, 15:44:43.024, 1587847483024
61, 126.58, -247.53, 101.50, 14.49, 0.000, 0.000, 0.000, 15:44:43.037, 1587847483037
62, 117.58, -248.87, 112.62, 7.14, 0.000, 0.000, 0.000, 15:44:43.037, 1587847483037
63, 121.79, -241.04, 119.59, 22.26, 0.000, 0.000, 0.000, 15:44:43.052, 1587847483052
64, 120.66, -238.91, 118.26, 16.42, 0.000, 0.000, 0.000, 15:44:43.053, 1587847483053
65, 83.67, -275.16, 82.65, 2.01, 0.000, 0.000, 0.000, 15:44:43.053, 1587847483053
66, 106.43, -262.35, 101.32, 16.45, 0.000, 0.000, 0.000, 15:44:43.053, 1587847483053
67, 149.61, -226.39, 144.13, 26.52, 0.000, 0.000, 0.000, 15:44:43.067, 1587847483067
68, 120.48, -249.51, 112.40, 9.38, 0.000, 0.000, 0.000, 15:44:43.067, 1587847483067
69, 108.02, -257.62, 97.39, 17.37, 0.000, 0.000, 0.000, 15:44:43.082, 1587847483082
70, 145.77, -222.67, 136.29, 28.96, 0.000, 0.000, 0.000, 15:44:43.082, 1587847483082
71, 127.21, -246.10, 108.65, 8.14, 0.000, 0.000, 0.000, 15:44:43.085, 1587847483085
72, 82.00, -293.19, 63.73, -9.22, 0.000, 0.000, 0.000, 15:44:43.085, 1587847483085
73, 123.10, -249.37, 99.37, 22.61, 0.000, 0.000, 0.000, 15:44:43.096, 1587847483096
74, 165.52, -207.26, 148.80, 32.87, 0.000, 0.000, 0.000, 15:44:43.096, 1587847483096
75, 104.73, -266.27, 82.78, -3.69, 0.000, 0.000, 0.000, 15:44:43.112, 1587847483112
76, 111.74, -261.87, 83.54, 12.27, 0.000, 0.000, 0.000, 15:44:43.112, 1587847483112
77, 178.41, -194.73, 148.55, 51.07, 0.000, 0.000, 0.000, 15:44:43.113, 1587847483113
78, 141.23, -236.44, 105.48, 7.01, 0.000, 0.000, 0.000, 15:44:43.113, 1587847483113
79, 54.14, -321.83, 37.29, -18.53, 0.000, 0.000, 0.000, 15:44:43.143, 1587847483143
80, 148.22, -222.48, 129.30, 45.34, 0.000, 0.000, 0.000, 15:44:43.143, 1587847483143
81, 178.33, -193.60, 153.86, 33.87, 0.000, 0.000, 0.000, 15:44:43.145, 1587847483145
82, 80.51, -287.18, 54.74, -12.40, 0.000, 0.000, 0.000, 15:44:43.145, 1587847483145
83, 123.08, -241.95, 102.60, 29.41, 0.000, 0.000, 0.000, 15:44:43.145, 1587847483145
84, 194.19, -165.82, 183.90, 52.07, 0.000, 0.000, 0.000, 15:44:43.145, 1587847483145
85, 95.48, -270.75, 69.68, -13.05, 0.000, 0.000, 0.000, 15:44:43.156, 1587847483156
86, 69.95, -298.58, 49.63, 0.97, 0.000, 0.000, 0.000, 15:44:43.156, 1587847483156
87, 204.05, -170.85, 183.83, 55.50, 0.000, 0.000, 0.000, 15:44:43.172, 1587847483172
88, 137.69, -240.02, 114.36, 8.93, 0.000, 0.000, 0.000, 15:44:43.172, 1587847483172
89, 32.26, -336.13, 17.76, -27.34, 0.000, 0.000, 0.000, 15:44:43.173, 1587847483173
90, 182.56, -184.36, 188.36, 65.26, 0.000, 0.000, 0.000, 15:44:43.173, 1587847483173
91, 265.45, -113.18, 238.22, 64.32, 0.000, 0.000, 0.000, 15:44:43.186, 1587847483186
92, 66.47, -308.47, 51.09, -29.93, 0.000, 0.000, 0.000, 15:44:43.186, 1587847483186
93, 76.37, -290.57, 54.76, 28.82, 0.000, 0.000, 0.000, 15:44:43.206, 1587847483206
94, 277.83, -101.08, 253.02, 84.47, 0.000, 0.000, 0.000, 15:44:43.206, 1587847483206
95, 128.69, -262.42, 88.37, -14.14, 0.000, 0.000, 0.000, 15:44:43.207, 1587847483207
96, 18.85, -357.58, -11.50, -13.01, 0.000, 0.000, 0.000, 15:44:43.207, 1587847483207
97, 241.99, -127.34, 220.09, 101.89, 0.000, 0.000, 0.000, 15:44:43.216, 1587847483216
98, 216.85, -156.13, 191.78, 45.18, 0.000, 0.000, 0.000, 15:44:43.216, 1587847483216
99, 43.28, -330.42, 17.51, -12.70, 0.000, 0.000, 0.000, 15:44:43.232, 1587847483232
100, 200.07, -169.13, 177.47, 97.87, 0.000, 0.000, 0.000, 15:44:43.232, 1587847483232
101, 301.83, -73.57, 278.15, 101.08, 0.000, 0.000, 0.000, 15:44:43.233, 1587847483233
102, 103.11, -274.02, 77.32, 8.67, 0.000, 0.000, 0.000, 15:44:43.233, 1587847483233
103, 115.99, -255.12, 93.20, 56.47, 0.000, 0.000, 0.000, 15:44:43.248, 1587847483248
104, 336.27, -45.09, 310.01, 139.63, 0.000, 0.000, 0.000, 15:44:43.248, 1587847483248
105, 173.46, -200.53, 140.65, 27.57, 0.000, 0.000, 0.000, 15:44:43.262, 1587847483262
106, 64.76, -298.49, 58.19, 24.33, 0.000, 0.000, 0.000, 15:44:43.262, 1587847483262
107, 269.82, -100.00, 267.32, 122.82, 0.000, 0.000, 0.000, 15:44:43.262, 1587847483262
108, 256.47, -118.33, 235.11, 78.20, 0.000, 0.000, 0.000, 15:44:43.262, 1587847483262
109, 46.39, -320.99, 22.82, 1.32, 0.000, 0.000, 0.000, 15:44:43.277, 1587847483277
110, 183.89, -187.65, 172.21, 81.44, 0.000, 0.000, 0.000, 15:44:43.277, 1587847483277
111, 282.90, -92.88, 263.54, 91.45, 0.000, 0.000, 0.000, 15:44:43.292, 1587847483292
112, 64.92, -312.06, 45.77, -15.77, 0.000, 0.000, 0.000, 15:44:43.292, 1587847483292
113, 103.90, -266.51, 86.70, 49.47, 0.000, 0.000, 0.000, 15:44:43.293, 1587847483293
114, 307.73, -65.62, 267.68, 111.64, 0.000, 0.000, 0.000, 15:44:43.293, 1587847483293
115, 135.58, -241.33, 114.36, 2.80, 0.000, 0.000, 0.000, 15:44:43.307, 1587847483307
116, 23.80, -342.02, -3.83, -9.18, 0.000, 0.000, 0.000, 15:44:43.307, 1587847483307
117, 241.07, -138.65, 206.96, 92.83, 0.000, 0.000, 0.000, 15:44:43.323, 1587847483323
118, 220.24, -164.63, 186.99, 31.42, 0.000, 0.000, 0.000, 15:44:43.323, 1587847483323
119, 4.99, -379.36, -45.27, -45.63, 0.000, 0.000, 0.000, 15:44:43.324, 1587847483324
120, 146.41, -230.75, 120.42, 55.55, 0.000, 0.000, 0.000, 15:44:43.324, 1587847483324
121, 253.76, -129.43, 222.60, 59.09, 0.000, 0.000, 0.000, 15:44:43.336, 1587847483336
122, 32.83, -345.00, -7.99, -49.13, 0.000, 0.000, 0.000, 15:44:43.336, 1587847483336
123, 51.44, -324.91, 33.57, 6.80, 0.000, 0.000, 0.000, 15:44:43.352, 1587847483352
124, 260.53, -114.61, 222.91, 83.34, 0.000, 0.000, 0.000, 15:44:43.352, 1587847483352
125, 94.22, -279.52, 73.20, -21.54, 0.000, 0.000, 0.000, 15:44:43.352, 1587847483352
126, -12.07, -385.52, -36.67, -33.00, 0.000, 0.000, 0.000, 15:44:43.352, 1587847483352
127, 213.62, -170.84, 181.26, 73.48, 0.000, 0.000, 0.000, 15:44:43.383, 1587847483383
128, 190.52, -188.47, 155.42, 15.44, 0.000, 0.000, 0.000, 15:44:43.383, 1587847483383
129, -34.65, -403.76, -60.83, -58.42, 0.000, 0.000, 0.000, 15:44:43.384, 1587847483384
130, 132.50, -240.44, 114.50, 49.75, 0.000, 0.000, 0.000, 15:44:43.384, 1587847483384
131, 249.19, -130.44, 219.83, 60.72, 0.000, 0.000, 0.000, 15:44:43.386, 1587847483386
132, 17.76, -355.28, -6.08, -51.63, 0.000, 0.000, 0.000, 15:44:43.386, 1587847483386
133, 30.68, -339.35, 12.04, 1.68, 0.000, 0.000, 0.000, 15:44:43.396, 1587847483396
134, 246.97, -132.78, 212.90, 71.85, 0.000, 0.000, 0.000, 15:44:43.396, 1587847483396
135, 95.60, -278.99, 70.32, -28.69, 0.000, 0.000, 0.000, 15:44:43.412, 1587847483412
136, -14.70, -382.13, -41.23, -30.98, 0.000, 0.000, 0.000, 15:44:43.412, 1587847483412
137, 212.93, -164.78, 197.14, 75.86, 0.000, 0.000, 0.000, 15:44:43.413, 1587847483413
138, 194.89, -192.53, 168.73, 16.74, 0.000, 0.000, 0.000, 15:44:43.413, 1587847483413
139, -19.10, -398.46, -52.89, -58.05, 0.000, 0.000, 0.000, 15:44:43.427, 1587847483427
140, 139.40, -232.75, 120.70, 45.42, 0.000, 0.000, 0.000, 15:44:43.427, 1587847483427
141, 255.04, -120.60, 215.10, 52.33, 0.000, 0.000, 0.000, 15:44:43.443, 1587847483443
142, 20.18, -359.76, -8.12, -53.06, 0.000, 0.000, 0.000, 15:44:43.443, 1587847483443
143, 41.44, -338.22, 15.04, 1.16, 0.000, 0.000, 0.000, 15:44:43.444, 1587847483444
144, 256.97, -122.76, 231.58, 73.02, 0.000, 0.000, 0.000, 15:44:43.444, 1587847483444
145, 100.31, -273.29, 64.48, -30.04, 0.000, 0.000, 0.000, 15:44:43.457, 1587847483457
146, 5.84, -372.80, -31.09, -36.99, 0.000, 0.000, 0.000, 15:44:43.457, 1587847483457
147, 199.72, -177.28, 163.69, 68.35, 0.000, 0.000, 0.000, 15:44:43.474, 1587847483474
148, 196.56, -181.71, 157.14, 20.51, 0.000, 0.000, 0.000, 15:44:43.474, 1587847483474
149, -14.78, -389.25, -51.03, -51.01, 0.000, 0.000, 0.000, 15:44:43.481, 1587847483481
150, 151.51, -230.16, 106.29, 46.10, 0.000, 0.000, 0.000, 15:44:43.481, 1587847483481
151, 253.58, -129.35, 215.30, 53.00, 0.000, 0.000, 0.000, 15:44:43.498, 1587847483498
152, 34.05, -337.25, -4.62, -43.48, 0.000, 0.000, 0.000, 15:44:43.498, 1587847483498
153, 55.55, -312.11, 19.43, 18.78, 0.000, 0.000, 0.000, 15:44:43.503, 1587847483503
154, 277.82, -102.15, 239.98, 90.70, 0.000, 0.000, 0.000, 15:44:43.503, 1587847483503
155, 140.83, -237.68, 95.79, -12.28, 0.000, 0.000, 0.000, 15:44:43.506, 1587847483506
156, 0.51, -373.25, -28.46, -23.48, 0.000, 0.000, 0.000, 15:44:43.506, 1587847483506
157, 220.17, -148.66, 206.25, 82.10, 0.000, 0.000, 0.000, 15:44:43.517, 1587847483517
158, 218.14, -163.79, 178.12, 34.75, 0.000, 0.000, 0.000, 15:44:43.517, 1587847483517
159, 4.35, -369.85, -36.97, -41.08, 0.000, 0.000, 0.000, 15:44:43.532, 1587847483532
160, 150.76, -225.13, 118.72, 58.72, 0.000, 0.000, 0.000, 15:44:43.532, 1587847483532
161, 296.49, -80.84, 264.96, 86.72, 0.000, 0.000, 0.000, 15:44:43.533, 1587847483533
162, 54.83, -320.12, 29.38, -31.16, 0.000, 0.000, 0.000, 15:44:43.533, 1587847483533
163, 70.25, -307.53, 38.02, 14.37, 0.000, 0.000, 0.000, 15:44:43.547, 1587847483547
164, 289.60, -97.62, 256.83, 93.83, 0.000, 0.000, 0.000, 15:44:43.547, 1587847483547
165, 132.99, -247.20, 102.77, -8.64, 0.000, 0.000, 0.000, 15:44:43.562, 1587847483562
166, 25.87, -351.51, -3.72, -17.48, 0.000, 0.000, 0.000, 15:44:43.562, 1587847483562
167, 244.31, -136.26, 215.88, 94.55, 0.000, 0.000, 0.000, 15:44:43.563, 1587847483563
168, 216.32, -167.99, 183.60, 35.58, 0.000, 0.000, 0.000, 15:44:43.563, 1587847483563
169, 4.88, -373.50, -23.39, -43.47, 0.000, 0.000, 0.000, 15:44:43.579, 1587847483579
170, 156.16, -225.52, 123.72, 56.67, 0.000, 0.000, 0.000, 15:44:43.579, 1587847483579
171, 263.97, -123.23, 233.00, 66.63, 0.000, 0.000, 0.000, 15:44:43.592, 1587847483592
172, 49.45, -325.77, 33.90, -39.08, 0.000, 0.000, 0.000, 15:44:43.592, 1587847483592
173, 77.77, -296.42, 53.70, 12.25, 0.000, 0.000, 0.000, 15:44:43.593, 1587847483593
174, 267.74, -110.94, 230.55, 80.75, 0.000, 0.000, 0.000, 15:44:43.593, 1587847483593
175, 125.17, -252.12, 99.01, -16.03, 0.000, 0.000, 0.000, 15:44:43.608, 1587847483608
176, -3.47, -374.84, -20.21, -25.51, 0.000, 0.000, 0.000, 15:44:43.608, 1587847483608
177, 223.64, -150.33, 198.63, 75.54, 0.000, 0.000, 0.000, 15:44:43.628, 1587847483628
178, 220.51, -162.59, 187.72, 25.74, 0.000, 0.000, 0.000, 15:44:43.628, 1587847483628
179, -15.35, -393.93, -40.65, -48.29, 0.000, 0.000, 0.000, 15:44:43.629, 1587847483629
180, 125.32, -256.43, 101.67, 45.82, 0.000, 0.000, 0.000, 15:44:43.629, 1587847483629
181, 264.30, -114.84, 235.32, 63.06, 0.000, 0.000, 0.000, 15:44:43.637, 1587847483637
182, 36.57, -338.88, 13.53, -38.25, 0.000, 0.000, 0.000, 15:44:43.637, 1587847483637
183, 55.10, -318.72, 35.66, 10.55, 0.000, 0.000, 0.000, 15:44:43.652, 1587847483652
184, 270.52, -114.32, 235.72, 79.39, 0.000, 0.000, 0.000, 15:44:43.652, 1587847483652
185, 113.49, -264.16, 71.80, -16.76, 0.000, 0.000, 0.000, 15:44:43.655, 1587847483655
186, -2.52, -377.55, -36.41, -28.93, 0.000, 0.000, 0.000, 15:44:43.655, 1587847483655
187, 207.68, -169.00, 178.99, 77.21, 0.000, 0.000, 0.000, 15:44:43.666, 1587847483666
188, 214.52, -169.43, 169.82, 28.72, 0.000, 0.000, 0.000, 15:44:43.666, 1587847483666
189, -3.07, -380.27, -34.01, -45.51, 0.000, 0.000, 0.000, 15:44:43.699, 1587847483699
190, 129.94, -254.29, 96.64, 47.18, 0.000, 0.000, 0.000, 15:44:43.699, 1587847483699
191, 262.89, -122.66, 227.78, 59.00, 0.000, 0.000, 0.000, 15:44:43.699, 1587847483699
192, 15.69, -361.93, -12.24, -41.35, 0.000, 0.000, 0.000, 15:44:43.699, 1587847483699
193, 51.36, -320.20, 34.24, 1.91, 0.000, 0.000, 0.000, 15:44:43.700, 1587847483700
194, 271.83, -114.79, 248.12, 78.48, 0.000, 0.000, 0.000, 15:44:43.700, 1587847483700
195, 121.85, -265.00, 75.45, -11.77, 0.000, 0.000, 0.000, 15:44:43.701, 1587847483701
196, 8.12, -372.91, -31.77, -35.47, 0.000, 0.000, 0.000, 15:44:43.701, 1587847483701
197, 215.56, -164.99, 166.33, 72.96, 0.000, 0.000, 0.000, 15:44:43.712, 1587847483712
198, 191.38, -189.16, 160.19, 23.17, 0.000, 0.000, 0.000, 15:44:43.712, 1587847483712
199, -5.85, -383.37, -29.60, -51.31, 0.000, 0.000, 0.000, 15:44:43.728, 1587847483728
200, 124.97, -262.00, 83.25, 41.98, 0.000, 0.000, 0.000, 15:44:43.728, 1587847483728
0, 243.01, -145.55, 210.28, 54.96, 0.000, 0.000, 0.000, 15:44:43.729, 1587847483729
1, 49.84, -332.71, 17.27, -45.12, 0.000, 0.000, 0.000, 15:44:43.746, 1587847483746
2, 38.40, -346.05, -6.51, 3.77, 0.000, 0.000, 0.000, 15:44:43.746, 1587847483746
3, 239.01, -135.67, 177.16, 75.74, 0.000, 0.000, 0.000, 15:44:43.758, 1587847483758
4, 155.88, -228.74, 123.39, -19.96, 0.000, 0.000, 0.000, 15:44:43.758, 1587847483758
5, -78.37, -434.16, -84.01, -31.79, 0.000, 0.000, 0.000, 15:44:43.762, 1587847483762
6, 140.44, -234.72, 101.82, 71.15, 0.000, 0.000, 0.000, 15:44:43.762, 1587847483762
7, 260.21, -143.62, 142.37, 19.22, 0.000, 0.000, 0.000, 15:44:43.776, 1587847483776
8, -11.18, -390.20, -41.87, -52.03, 0.000, 0.000, 0.000, 15:44:43.776, 1587847483776
9, 126.80, -256.14, 65.46, 38.76, 0.000, 0.000, 0.000, 15:44:43.787, 1587847483787
10, 265.60, -111.46, 233.24, 54.84, 0.000, 0.000, 0.000, 15:44:43.787, 1587847483787
11, -14.62, -375.44, 4.77, -44.66, 0.000, 0.000, 0.000, 15:44:43.789, 1587847483789
12, 90.66, -292.44, 21.68, -1.64, 0.000, 0.000, 0.000, 15:44:43.789, 1587847483789
13, 280.25, -118.55, 203.06, 69.97, 0.000, 0.000, 0.000, 15:44:43.803, 1587847483803
14, 89.40, -289.78, 10.29, -18.49, 0.000, 0.000, 0.000, 15:44:43.803, 1587847483803
15, -14.90, -415.75, -44.75, -35.88, 0.000, 0.000, 0.000, 15:44:43.818, 1587847483818
16, 215.91, -188.38, 179.00, 67.45, 0.000, 0.000, 0.000, 15:44:43.818, 1587847483818
17, 193.68, -191.22, 181.43, 20.34, 0.000, 0.000, 0.000, 15:44:43.818, 1587847483818
18, -15.07, -389.37, -20.75, -58.78, 0.000, 0.000, 0.000, 15:44:43.818, 1587847483818
19, 145.25, -220.85, 100.63, 35.49, 0.000, 0.000, 0.000, 15:44:43.832, 1587847483832
20, 217.35, -166.67, 160.11, 52.02, 0.000, 0.000, 0.000, 15:44:43.832, 1587847483832
21, 10.23, -371.64, -43.17, -52.19, 0.000, 0.000, 0.000, 15:44:43.847, 1587847483847
22, 48.11, -350.72, 35.23, -10.23, 0.000, 0.000, 0.000, 15:44:43.847, 1587847483847
23, 218.36, -164.63, 257.83, 69.04, 0.000, 0.000, 0.000, 15:44:43.850, 1587847483850
24, 90.28, -282.49, 147.80, -23.50, 0.000, 0.000, 0.000, 15:44:43.850, 1587847483850
25, -1.95, -419.60, -56.48, -35.88, 0.000, 0.000, 0.000, 15:44:43.862, 1587847483862
26, 210.91, -191.08, 193.79, 61.09, 0.000, 0.000, 0.000, 15:44:43.862, 1587847483862
27, 200.47, -185.56, 218.14, 19.84, 0.000, 0.000, 0.000, 15:44:43.878, 1587847483878
28, -46.30, -414.82, -102.99, -58.16, 0.000, 0.000, 0.000, 15:44:43.878, 1587847483878
29, 66.01, -274.17, 112.81, 32.95, 0.000, 0.000, 0.000, 15:44:43.879, 1587847483879
30, 218.37, -167.01, 237.96, 57.84, 0.000, 0.000, 0.000, 15:44:43.879, 1587847483879
31, 52.40, -345.02, 2.77, -49.25, 0.000, 0.000, 0.000, 15:44:43.892, 1587847483892
32, 92.32, -316.17, 28.24, -3.69, 0.000, 0.000, 0.000, 15:44:43.892, 1587847483892
33, 253.48, -133.51, 265.38, 77.97, 0.000, 0.000, 0.000, 15:44:43.907, 1587847483907
34, 130.06, -253.24, 146.04, -18.24, 0.000, 0.000, 0.000, 15:44:43.907, 1587847483907
35, -5.98, -405.19, -37.65, -31.36, 0.000, 0.000, 0.000, 15:44:43.908, 1587847483908
36, 175.46, -195.20, 238.53, 71.76, 0.000, 0.000, 0.000, 15:44:43.908, 1587847483908
37, 195.56, -183.08, 186.48, 27.47, 0.000, 0.000, 0.000, 15:44:43.922, 1587847483922
38, 23.43, -373.24, -37.78, -48.34, 0.000, 0.000, 0.000, 15:44:43.922, 1587847483922
39, 162.18, -223.25, 217.17, 47.18, 0.000, 0.000, 0.000, 15:44:43.939, 1587847483939
40, 254.34, -170.53, 217.77, 64.88, 0.000, 0.000, 0.000, 15:44:43.939, 1587847483939
41, 50.03, -332.90, 87.29, -40.60, 0.000, 0.000, 0.000, 15:44:43.940, 1587847483940
42, 25.71, -334.69, 67.88, -2.22, 0.000, 0.000, 0.000, 15:44:43.940, 1587847483940
43, 202.06, -150.76, 200.00, 77.11, 0.000, 0.000, 0.000, 15:44:43.952, 1587847483952
44, 141.59, -256.73, 158.08, -10.87, 0.000, 0.000, 0.000, 15:44:43.952, 1587847483952
45, -31.50, -394.20, -17.85, -30.13, 0.000, 0.000, 0.000, 15:44:43.967, 1587847483967
46, 193.88, -179.40, 201.54, 69.69, 0.000, 0.000, 0.000, 15:44:43.967, 1587847483967
47, 202.96, -183.17, 201.02, 27.40, 0.000, 0.000, 0.000, 15:44:43.968, 1587847483968
48, -22.82, -369.74, -8.24, -51.40, 0.000, 0.000, 0.000, 15:44:43.968, 1587847483968
49, 139.79, -259.14, 142.39, 41.84, 0.000, 0.000, 0.000, 15:44:43.998, 1587847483998
50, 234.57, -179.18, 147.69, 62.47, 0.000, 0.000, 0.000, 15:44:43.998, 1587847483998
51, 103.92, -293.45, 26.02, -41.08, 0.000, 0.000, 0.000, 15:44:43.999, 1587847483999
52, 29.19, -322.19, 132.12, 7.19, 0.000, 0.000, 0.000, 15:44:43.999, 1587847483999
53, 237.38, -116.46, 328.85, 84.32, 0.000, 0.000, 0.000, 15:44:43.999, 1587847483999
54, 59.82, -283.63, 114.80, -6.14, 0.000, 0.000, 0.000, 15:44:43.999, 1587847483999
55, -62.23, -416.02, -2.65, -33.20, 0.000, 0.000, 0.000, 15:44:44.012, 1587847484012
56, 236.38, -167.57, 166.56, 70.21, 0.000, 0.000, 0.000, 15:44:44.012, 1587847484012
57, 261.17, -148.04, 247.28, 36.03, 0.000, 0.000, 0.000, 15:44:44.027, 1587847484027
58, 39.77, -373.63, 27.16, -48.17, 0.000, 0.000, 0.000, 15:44:44.027, 1587847484027
59, 89.33, -265.74, 156.25, 44.60, 0.000, 0.000, 0.000, 15:44:44.029, 1587847484029
60, 218.50, -140.59, 239.10, 67.80, 0.000, 0.000, 0.000, 15:44:44.029, 1587847484029
61, 49.07, -327.23, 85.36, -42.32, 0.000, 0.000, 0.000, 15:44:44.042, 1587847484042
62, 43.49, -336.06, 64.37, 1.73, 0.000, 0.000, 0.000, 15:44:44.042, 1587847484042
63, 256.65, -112.68, 334.33, 82.98, 0.000, 0.000, 0.000, 15:44:44.057, 1587847484057
64, 119.34, -237.20, 202.22, -10.26, 0.000, 0.000, 0.000, 15:44:44.057, 1587847484057
65, -38.43, -418.62, -13.94, -31.74, 0.000, 0.000, 0.000, 15:44:44.057, 1587847484057
66, 202.37, -189.32, 185.63, 74.32, 0.000, 0.000, 0.000, 15:44:44.057, 1587847484057
67, 219.52, -167.48, 233.03, 26.45, 0.000, 0.000, 0.000, 15:44:44.072, 1587847484072
68, -16.88, -369.35, 93.20, -49.41, 0.000, 0.000, 0.000, 15:44:44.072, 1587847484072
69, 114.29, -263.27, 170.30, 42.69, 0.000, 0.000, 0.000, 15:44:44.087, 1587847484087
70, 220.23, -155.88, 289.56, 64.05, 0.000, 0.000, 0.000, 15:44:44.087, 1587847484087
71, 35.38, -346.09, 43.37, -35.59, 0.000, 0.000, 0.000, 15:44:44.087, 1587847484087
72, -35.12, -368.94, 70.31, 1.76, 0.000, 0.000, 0.000, 15:44:44.087, 1587847484087
73, 232.54, -112.21, 287.26, 84.63, 0.000, 0.000, 0.000, 15:44:44.102, 1587847484102
74, 159.66, -233.71, 184.24, -3.14, 0.000, 0.000, 0.000, 15:44:44.102, 1587847484102
75, -14.51, -380.36, 49.48, -24.60, 0.000, 0.000, 0.000, 15:44:44.118, 1587847484118
76, 206.50, -184.79, 237.37, 74.34, 0.000, 0.000, 0.000, 15:44:44.118, 1587847484118
77, 203.75, -187.97, 212.24, 37.84, 0.000, 0.000, 0.000, 15:44:44.119, 1587847484119
78, -11.25, -388.53, 0.78, -46.23, 0.000, 0.000, 0.000, 15:44:44.119, 1587847484119
79, 123.88, -264.69, 119.97, 39.85, 0.000, 0.000, 0.000, 15:44:44.131, 1587847484131
80, 244.52, -103.11, 332.73, 59.72, 0.000, 0.000, 0.000, 15:44:44.131, 1587847484131
81, 53.49, -327.68, 41.47, -40.45, 0.000, 0.000, 0.000, 15:44:44.147, 1587847484147
82, 38.48, -343.18, 57.62, -4.09, 0.000, 0.000, 0.000, 15:44:44.147, 1587847484147
83, 212.69, -153.98, 263.27, 84.10, 0.000, 0.000, 0.000, 15:44:44.148, 1587847484148
84, 111.38, -247.34, 146.55, -13.73, 0.000, 0.000, 0.000, 15:44:44.148, 1587847484148
85, 14.78, -366.10, 27.10, -30.24, 0.000, 0.000, 0.000, 15:44:44.162, 1587847484162
86, 152.94, -203.88, 159.41, 69.12, 0.000, 0.000, 0.000, 15:44:44.162, 1587847484162
87, 213.61, -127.91, 193.94, 26.35, 0.000, 0.000, 0.000, 15:44:44.178, 1587847484178
88, -15.21, -379.85, 22.23, -52.05, 0.000, 0.000, 0.000, 15:44:44.178, 1587847484178
89, 122.83, -244.25, 167.16, 41.27, 0.000, 0.000, 0.000, 15:44:44.181, 1587847484181
90, 270.44, -112.19, 273.79, 65.63, 0.000, 0.000, 0.000, 15:44:44.181, 1587847484181
91, 30.36, -346.62, 37.95, -36.43, 0.000, 0.000, 0.000, 15:44:44.192, 1587847484192
92, 8.13, -352.59, 29.83, -3.52, 0.000, 0.000, 0.000, 15:44:44.192, 1587847484192
93, 255.12, -114.56, 277.58, 73.23, 0.000, 0.000, 0.000, 15:44:44.208, 1587847484208
94, 125.83, -245.85, 121.10, -5.64, 0.000, 0.000, 0.000, 15:44:44.208, 1587847484208
95, -33.35, -380.23, -8.88, -36.47, 0.000, 0.000, 0.000, 15:44:44.210, 1587847484210
96, 144.09, -186.25, 150.20, 69.62, 0.000, 0.000, 0.000, 15:44:44.210, 1587847484210
97, 251.44, -137.65, 258.38, 30.32, 0.000, 0.000, 0.000, 15:44:44.223, 1587847484223
98, 19.15, -356.85, 43.43, -52.02, 0.000, 0.000, 0.000, 15:44:44.223, 1587847484223
99, 94.35, -271.78, 107.08, 45.21, 0.000, 0.000, 0.000, 15:44:44.237, 1587847484237
100, 269.44, -109.36, 276.07, 63.55, 0.000, 0.000, 0.000, 15:44:44.237, 1587847484237
101, 49.84, -319.90, 26.44, -43.28, 0.000, 0.000, 0.000, 15:44:44.258, 1587847484258
102, 5.43, -366.25, 28.76, -5.30, 0.000, 0.000, 0.000, 15:44:44.258, 1587847484258
103, 246.25, -96.93, 260.20, 80.43, 0.000, 0.000, 0.000, 15:44:44.259, 1587847484259
104, 127.70, -211.29, 131.64, -6.26, 0.000, 0.000, 0.000, 15:44:44.259, 1587847484259
105, -9.50, -366.09, 8.81, -34.50, 0.000, 0.000, 0.000, 15:44:44.267, 1587847484267
106, 167.58, -186.57, 193.67, 65.97, 0.000, 0.000, 0.000, 15:44:44.267, 1587847484267
107, 225.26, -145.13, 220.97, 34.52, 0.000, 0.000, 0.000, 15:44:44.268, 1587847484268
108, -19.93, -382.35, -21.85, -49.57, 0.000, 0.000, 0.000, 15:44:44.268, 1587847484268
109, 115.50, -246.37, 91.80, 41.12, 0.000, 0.000, 0.000, 15:44:44.283, 1587847484283
110, 246.77, -111.62, 228.64, 67.91, 0.000, 0.000, 0.000, 15:44:44.283, 1587847484283
111, 53.96, -305.68, 55.32, -41.69, 0.000, 0.000, 0.000, 15:44:44.297, 1587847484297
112, 58.50, -314.76, 52.50, -4.08, 0.000, 0.000, 0.000, 15:44:44.297, 1587847484297
113, 267.40, -106.25, 250.14, 76.86, 0.000, 0.000, 0.000, 15:44:44.298, 1587847484298
114, 137.04, -230.20, 126.95, -5.71, 0.000, 0.000, 0.000, 15:44:44.298, 1587847484298
115, -8.89, -370.23, -3.80, -39.77, 0.000, 0.000, 0.000, 15:44:44.313, 1587847484313
116, 183.68, -188.46, 159.35, 67.87, 0.000, 0.000, 0.000, 15:44:44.313, 1587847484313
117, 227.59, -165.90, 198.51, 33.48, 0.000, 0.000, 0.000, 15:44:44.328, 1587847484328
118, 8.22, -344.58, 7.29, -49.49, 0.000, 0.000, 0.000, 15:44:44.328, 1587847484328
119, 120.24, -222.54, 130.20, 35.44, 0.000, 0.000, 0.000, 15:44:44.329, 1587847484329
120, 250.74, -124.39, 230.74, 64.48, 0.000, 0.000, 0.000, 15:44:44.329, 1587847484329
121, 48.74, -313.20, 31.85, -39.66, 0.000, 0.000, 0.000, 15:44:44.342, 1587847484342
122, 41.25, -327.10, 33.74, -2.10, 0.000, 0.000, 0.000, 15:44:44.342, 1587847484342
123, 247.10, -120.37, 243.39, 76.72, 0.000, 0.000, 0.000, 15:44:44.357, 1587847484357
124, 170.39, -208.01, 169.34, -4.24, 0.000, 0.000, 0.000, 15:44:44.357, 1587847484357
125, -6.75, -380.09, -5.18, -34.22, 0.000, 0.000, 0.000, 15:44:44.359, 1587847484359
126, 193.15, -187.74, 182.31, 71.06, 0.000, 0.000, 0.000, 15:44:44.359, 1587847484359
127, 231.03, -139.63, 225.03, 35.85, 0.000, 0.000, 0.000, 15:44:44.372, 1587847484372
128, 14.04, -369.87, 3.82, -44.04, 0.000, 0.000, 0.000, 15:44:44.372, 1587847484372
129, 159.12, -222.10, 144.80, 39.58, 0.000, 0.000, 0.000, 15:44:44.388, 1587847484388
130, 314.25, -48.18, 318.00, 67.87, 0.000, 0.000, 0.000, 15:44:44.388, 1587847484388
131, 96.05, -262.81, 87.45, -38.53, 0.000, 0.000, 0.000, 15:44:44.389, 1587847484389
132, 83.77, -277.35, 58.72, -4.45, 0.000, 0.000, 0.000, 15:44:44.389, 1587847484389
133, 323.62, -53.73, 274.53, 76.14, 0.000, 0.000, 0.000, 15:44:44.401, 1587847484401
134, 198.49, -153.61, 154.49, -4.59, 0.000, 0.000, 0.000, 15:44:44.401, 1587847484401
135, 35.62, -300.46, 13.24, -31.45, 0.000, 0.000, 0.000, 15:44:44.417, 1587847484417
136, 258.87, -99.27, 207.75, 70.39, 0.000, 0.000, 0.000, 15:44:44.417, 1587847484417
137, 272.78, -99.68, 189.47, 37.57, 0.000, 0.000, 0.000, 15:44:44.419, 1587847484419
138, 45.62, -321.34, -21.56, -43.33, 0.000, 0.000, 0.000, 15:44:44.419, 1587847484419
139, 171.76, -177.91, 120.79, 40.11, 0.000, 0.000, 0.000, 15:44:44.431, 1587847484431
140, 293.72, -46.50, 275.80, 61.60, 0.000, 0.000, 0.000, 15:44:44.431, 1587847484431
141, 107.60, -251.67, 55.81, -37.83, 0.000, 0.000, 0.000, 15:44:44.447, 1587847484447
142, 75.16, -285.14, 18.54, -3.05, 0.000, 0.000, 0.000, 15:44:44.447, 1587847484447
143, 293.11, -74.38, 216.91, 72.00, 0.000, 0.000, 0.000, 15:44:44.448, 1587847484448
144, 162.79, -203.21, 96.63, -8.69, 0.000, 0.000, 0.000, 15:44:44.448, 1587847484448
145, 2.13, -367.00, -56.58, -40.76, 0.000, 0.000, 0.000, 15:44:44.461, 1587847484461
146, 233.28, -141.03, 160.62, 63.15, 0.000, 0.000, 0.000, 15:44:44.461, 1587847484461
147, 240.51, -131.48, 178.49, 31.59, 0.000, 0.000, 0.000, 15:44:44.478, 1587847484478
148, 24.76, -345.31, -28.60, -50.11, 0.000, 0.000, 0.000, 15:44:44.478, 1587847484478
149, 131.93, -242.26, 87.07, 39.47, 0.000, 0.000, 0.000, 15:44:44.479, 1587847484479
150, 276.33, -111.42, 221.35, 67.42, 0.000, 0.000, 0.000, 15:44:44.479, 1587847484479
151, 91.54, -289.08, 35.44, -40.64, 0.000, 0.000, 0.000, 15:44:44.491, 1587847484491
152, 65.35, -317.67, -11.69, -0.95, 0.000, 0.000, 0.000, 15:44:44.491, 1587847484491
153, 254.16, -125.23, 219.60, 79.06, 0.000, 0.000, 0.000, 15:44:44.508, 1587847484508
154, 155.67, -232.23, 101.71, -5.26, 0.000, 0.000, 0.000, 15:44:44.508, 1587847484508
155, 6.17, -377.71, -53.37, -38.64, 0.000, 0.000, 0.000, 15:44:44.509, 1587847484509
156, 213.74, -169.85, 151.61, 64.27, 0.000, 0.000, 0.000, 15:44:44.509, 1587847484509
157, 238.34, -145.44, 178.58, 37.08, 0.000, 0.000, 0.000, 15:44:44.523, 1587847484523
158, 3.02, -378.33, -65.77, -47.30, 0.000, 0.000, 0.000, 15:44:44.523, 1587847484523
159, 133.34, -239.30, 53.48, 34.37, 0.000, 0.000, 0.000, 15:44:44.554, 1587847484554
160, 298.64, -80.27, 236.70, 71.06, 0.000, 0.000, 0.000, 15:44:44.554, 1587847484554
161, 129.65, -248.99, 38.08, -41.63, 0.000, 0.000, 0.000, 15:44:44.555, 1587847484555
162, 114.83, -283.14, -12.67, -6.49, 0.000, 0.000, 0.000, 15:44:44.555, 1587847484555
163, 306.66, -54.34, 255.23, 76.03, 0.000, 0.000, 0.000, 15:44:44.556, 1587847484556
164, 103.37, -275.30, 18.50, -2.80, 0.000, 0.000, 0.000, 15:44:44.556, 1587847484556
165, -56.34, -442.75, -90.73, -41.90, 0.000, 0.000, 0.000, 15:44:44.557, 1587847484557
166, 234.52, -142.30, 182.88, 63.55, 0.000, 0.000, 0.000, 15:44:44.557, 1587847484557
167, 307.65, -69.75, 226.65, 36.57, 0.000, 0.000, 0.000, 15:44:44.567, 1587847484567
168, 9.34, -396.82, -128.66, -51.84, 0.000, 0.000, 0.000, 15:44:44.567, 1587847484567
169, 118.52, -265.82, 32.87, 27.26, 0.000, 0.000, 0.000, 15:44:44.582, 1587847484582
170, 235.34, -156.96, 175.09, 59.78, 0.000, 0.000, 0.000, 15:44:44.582, 1587847484582
171, 132.70, -275.67, -10.51, -44.19, 0.000, 0.000, 0.000, 15:44:44.597, 1587847484597
172, 66.89, -297.10, -5.10, -13.00, 0.000, 0.000, 0.000, 15:44:44.597, 1587847484597
173, 215.91, -138.80, 180.99, 74.27, 0.000, 0.000, 0.000, 15:44:44.598, 1587847484598
174, 190.52, -212.85, 116.24, -10.09, 0.000, 0.000, 0.000, 15:44:44.598, 1587847484598
175, 6.80, -387.12, -38.49, -44.40, 0.000, 0.000, 0.000, 15:44:44.612, 1587847484612
176, 219.82, -192.33, 66.93, 59.34, 0.000, 0.000, 0.000, 15:44:44.612, 1587847484612
177, 136.00, -227.39, 52.10, 32.80, 0.000, 0.000, 0.000, 15:44:44.628, 1587847484628
178, 6.74, -378.48, -46.72, -56.38, 0.000, 0.000, 0.000, 15:44:44.628, 1587847484628
179, 151.48, -237.33, 10.21, 23.51, 0.000, 0.000, 0.000, 15:44:44.636, 1587847484636
180, 232.29, -142.20, 172.24, 59.37, 0.000, 0.000, 0.000, 15:44:44.636, 1587847484636
181, 77.59, -304.79, 12.39, -45.68, 0.000, 0.000, 0.000, 15:44:44.644, 1587847484644
182, 29.49, -371.69, -71.85, -18.01, 0.000, 0.000, 0.000, 15:44:44.644, 1587847484644
183, 242.23, -153.80, 190.14, 74.06, 0.000, 0.000, 0.000, 15:44:44.657, 1587847484657
184, 160.31, -242.94, 50.44, -9.47, 0.000, 0.000, 0.000, 15:44:44.657, 1587847484657
185, -38.81, -408.17, -95.73, -47.01, 0.000, 0.000, 0.000, 15:44:44.658, 1587847484658
186, 169.82, -227.53, 106.02, 61.20, 0.000, 0.000, 0.000, 15:44:44.658, 1587847484658
187, 294.57, -128.37, 130.20, 28.73, 0.000, 0.000, 0.000, 15:44:44.672, 1587847484672
188, -9.11, -371.44, -50.54, -56.71, 0.000, 0.000, 0.000, 15:44:44.672, 1587847484672
189, 121.31, -305.97, 39.88, 29.11, 0.000, 0.000, 0.000, 15:44:44.687, 1587847484687
190, 339.31, -91.40, 209.72, 64.76, 0.000, 0.000, 0.000, 15:44:44.687, 1587847484687
191, 53.46, -337.71, -15.17, -39.90, 0.000, 0.000, 0.000, 15:44:44.688, 1587847484688
192, 46.83, -376.56, -36.00, -8.52, 0.000, 0.000, 0.000, 15:44:44.688, 1587847484688
193, 234.71, -160.96, 185.27, 77.07, 0.000, 0.000, 0.000, 15:44:44.701, 1587847484701
194, 121.33, -257.27, 87.13, -8.96, 0.000, 0.000, 0.000, 15:44:44.701, 1587847484701
195, -28.36, -415.29, -74.09, -40.91, 0.000, 0.000, 0.000, 15:44:44.717, 1587847484717
196, 189.47, -186.44, 130.54, 64.55, 0.000, 0.000, 0.000, 15:44:44.717, 1587847484717
197, 233.79, -159.68, 144.99, 33.80, 0.000, 0.000, 0.000, 15:44:44.719, 1587847484719
198, -15.56, -419.54, -39.59, -56.08, 0.000, 0.000, 0.000, 15:44:44.719, 1587847484719
199, 62.82, -330.87, 53.65, 30.20, 0.000, 0.000, 0.000, 15:44:44.733, 1587847484733
200, 248.01, -116.27, 220.56, 65.30, 0.000, 0.000, 0.000, 15:44:44.733, 1587847484733
0, 80.33, -328.55, -9.36, -44.07, 0.000, 0.000, 0.000, 15:44:44.735, 1587847484735
1, -2.67, -406.65, -49.12, -10.29, 0.000, 0.000, 0.000, 15:44:44.747, 1587847484747
2, 224.44, -159.87, 223.64, 72.18, 0.000, 0.000, 0.000, 15:44:44.747, 1587847484747
3, 120.47, -262.34, 86.42, -5.13, 0.000, 0.000, 0.000, 15:44:44.764, 1587847484764
4, 2.21, -396.51, -47.34, -43.30, 0.000, 0.000, 0.000, 15:44:44.764, 1587847484764
5, 161.74, -225.95, 139.25, 64.67, 0.000, 0.000, 0.000, 15:44:44.767, 1587847484767
6, 202.37, -183.97, 191.87, 36.96, 0.000, 0.000, 0.000, 15:44:44.767, 1587847484767
7, -5.98, -405.64, -36.76, -52.75, 0.000, 0.000, 0.000, 15:44:44.776, 1587847484776
8, 106.96, -286.41, 74.43, 28.05, 0.000, 0.000, 0.000, 15:44:44.776, 1587847484776
9, 252.68, -146.02, 224.26, 70.28, 0.000, 0.000, 0.000, 15:44:44.810, 1587847484810
10, 55.21, -335.43, 37.75, -36.37, 0.000, 0.000, 0.000, 15:44:44.810, 1587847484810
11, 23.94, -366.04, -3.42, -9.35, 0.000, 0.000, 0.000, 15:44:44.815, 1587847484815
12, 226.03, -166.07, 212.43, 73.59, 0.000, 0.000, 0.000, 15:44:44.815, 1587847484815
13, 174.48, -224.81, 150.79, -3.92, 0.000, 0.000, 0.000, 15:44:44.816, 1587847484816
14, -32.58, -413.62, -62.15, -45.64, 0.000, 0.000, 0.000, 15:44:44.816, 1587847484816
15, 169.28, -216.08, 158.13, 66.11, 0.000, 0.000, 0.000, 15:44:44.817, 1587847484817
16, 230.16, -156.03, 208.07, 35.06, 0.000, 0.000, 0.000, 15:44:44.817, 1587847484817
17, -13.89, -398.54, -24.13, -47.43, 0.000, 0.000, 0.000, 15:44:44.822, 1587847484822
18, 98.86, -294.13, 69.31, 29.59, 0.000, 0.000, 0.000, 15:44:44.822, 1587847484822
19, 257.37, -136.34, 227.69, 62.77, 0.000, 0.000, 0.000, 15:44:44.836, 1587847484836
20, 78.15, -327.66, 14.16, -41.73, 0.000, 0.000, 0.000, 15:44:44.836, 1587847484836
21, 24.69, -359.86, -5.63, -14.65, 0.000, 0.000, 0.000, 15:44:44.852, 1587847484852
22, 219.03, -173.64, 196.26, 72.47, 0.000, 0.000, 0.000, 15:44:44.852, 1587847484852
23, 142.53, -246.71, 123.71, -12.20, 0.000, 0.000, 0.000, 15:44:44.857, 1587847484857
24, -9.62, -401.05, -46.54, -46.64, 0.000, 0.000, 0.000, 15:44:44.857, 1587847484857
25, 182.30, -209.74, 162.96, 59.17, 0.000, 0.000, 0.000, 15:44:44.866, 1587847484866
26, 225.45, -171.36, 190.46, 37.54, 0.000, 0.000, 0.000, 15:44:44.866, 1587847484866
27, 14.15, -378.06, -22.97, -52.56, 0.000, 0.000, 0.000, 15:44:44.883, 1587847484883
28, 95.15, -299.13, 55.80, 29.64, 0.000, 0.000, 0.000, 15:44:44.883, 1587847484883
29, 260.69, -140.87, 215.39, 63.37, 0.000, 0.000, 0.000, 15:44:44.886, 1587847484886
30, 71.79, -326.60, 21.58, -38.56, 0.000, 0.000, 0.000, 15:44:44.886, 1587847484886
31, 17.81, -368.26, -19.79, -14.71, 0.000, 0.000, 0.000, 15:44:44.896, 1587847484896
32, 234.31, -149.39, 199.92, 73.91, 0.000, 0.000, 0.000, 15:44:44.896, 1587847484896
33, 176.73, -223.40, 130.45, -4.73, 0.000, 0.000, 0.000, 15:44:44.913, 1587847484913
34, -10.53, -402.53, -50.77, -47.14, 0.000, 0.000, 0.000, 15:44:44.913, 1587847484913
35, 198.58, -207.86, 150.98, 63.16, 0.000, 0.000, 0.000, 15:44:44.915, 1587847484915
36, 227.87, -160.78, 193.58, 33.16, 0.000, 0.000, 0.000, 15:44:44.915, 1587847484915
37, -0.81, -389.85, -38.38, -52.80, 0.000, 0.000, 0.000, 15:44:44.927, 1587847484927
38, 105.85, -294.08, 46.24, 26.31, 0.000, 0.000, 0.000, 15:44:44.927, 1587847484927
39, 279.11, -125.49, 223.19, 64.68, 0.000, 0.000, 0.000, 15:44:44.942, 1587847484942
40, 80.20, -315.78, 26.09, -39.27, 0.000, 0.000, 0.000, 15:44:44.942, 1587847484942
41, 18.90, -376.97, -36.36, -14.55, 0.000, 0.000, 0.000, 15:44:44.959, 1587847484959
42, 251.40, -140.90, 183.26, 70.23, 0.000, 0.000, 0.000, 15:44:44.959, 1587847484959
43, 165.24, -219.95, 115.16, -0.93, 0.000, 0.000, 0.000, 15:44:44.960, 1587847484960
44, 4.24, -376.89, -29.13, -44.30, 0.000, 0.000, 0.000, 15:44:44.960, 1587847484960
45, 186.14, -195.46, 155.02, 59.54, 0.000, 0.000, 0.000, 15:44:44.972, 1587847484972
46, 230.85, -152.72, 181.38, 33.78, 0.000, 0.000, 0.000, 15:44:44.972, 1587847484972
47, 21.06, -368.34, -32.57, -53.62, 0.000, 0.000, 0.000, 15:44:44.973, 1587847484973
48, 109.43, -289.31, 43.00, 24.87, 0.000, 0.000, 0.000, 15:44:44.973, 1587847484973
49, 274.04, -112.13, 218.46, 65.51, 0.000, 0.000, 0.000, 15:44:44.987, 1587847484987
50, 79.88, -304.69, 26.98, -38.71, 0.000, 0.000, 0.000, 15:44:44.987, 1587847484987
51, 30.62, -361.08, -14.61, -11.77, 0.000, 0.000, 0.000, 15:44:45.002, 1587847485002
52, 258.05, -140.66, 185.71, 71.28, 0.000, 0.000, 0.000, 15:44:45.002, 1587847485002
53, 177.39, -220.23, 118.86, -1.36, 0.000, 0.000, 0.000, 15:44:45.003, 1587847485003
54, -9.40, -391.72, -58.05, -48.85, 0.000, 0.000, 0.000, 15:44:45.003, 1587847485003
55, 197.57, -198.80, 120.87, 61.94, 0.000, 0.000, 0.000, 15:44:45.016, 1587847485016
56, 253.44, -148.63, 189.74, 36.58, 0.000, 0.000, 0.000, 15:44:45.016, 1587847485016
57, 35.33, -354.49, -34.55, -46.43, 0.000, 0.000, 0.000, 15:44:45.032, 1587847485032
58, 118.24, -277.01, 54.51, 26.22, 0.000, 0.000, 0.000, 15:44:45.032, 1587847485032
59, 278.95, -114.34, 198.61, 66.89, 0.000, 0.000, 0.000, 15:44:45.037, 1587847485037
60, 88.23, -299.00, 18.59, -31.08, 0.000, 0.000, 0.000, 15:44:45.037, 1587847485037
61, 33.61, -345.16, -31.25, -16.11, 0.000, 0.000, 0.000, 15:44:45.046, 1587847485046
62, 251.66, -131.05, 196.95, 72.45, 0.000, 0.000, 0.000, 15:44:45.046, 1587847485046
63, 180.19, -212.33, 120.22, 4.00, 0.000, 0.000, 0.000, 15:44:45.062, 1587847485062
64, -5.59, -382.51, -68.68, -41.11, 0.000, 0.000, 0.000, 15:44:45.062, 1587847485062
65, 195.81, -191.61, 134.03, 67.60, 0.000, 0.000, 0.000, 15:44:45.063, 1587847485063
66, 239.65, -144.18, 190.56, 38.45, 0.000, 0.000, 0.000, 15:44:45.063, 1587847485063
67, 20.98, -362.46, -45.62, -47.81, 0.000, 0.000, 0.000, 15:44:45.076, 1587847485076
68, 106.33, -272.50, 60.78, 27.40, 0.000, 0.000, 0.000, 15:44:45.076, 1587847485076
69, 286.85, -102.40, 210.13, 73.12, 0.000, 0.000, 0.000, 15:44:45.091, 1587847485091
70, 98.03, -290.47, 21.06, -32.98, 0.000, 0.000, 0.000, 15:44:45.091, 1587847485091
71, 14.57, -360.76, -48.57, -10.31, 0.000, 0.000, 0.000, 15:44:45.107, 1587847485107
72, 256.16, -123.64, 192.42, 76.47, 0.000, 0.000, 0.000, 15:44:45.107, 1587847485107
73, 186.45, -198.84, 119.05, 7.99, 0.000, 0.000, 0.000, 15:44:45.108, 1587847485108
74, 0.05, -380.40, -80.13, -40.07, 0.000, 0.000, 0.000, 15:44:45.108, 1587847485108
75, 186.92, -199.10, 121.53, 62.48, 0.000, 0.000, 0.000, 15:44:45.124, 1587847485124
76, 251.91, -126.30, 191.28, 37.84, 0.000, 0.000, 0.000, 15:44:45.124, 1587847485124
77, 24.01, -358.96, -43.20, -46.26, 0.000, 0.000, 0.000, 15:44:45.129, 1587847485129
78, 125.34, -269.79, 46.72, 28.28, 0.000, 0.000, 0.000, 15:44:45.129, 1587847485129
79, 278.13, -112.09, 208.88, 72.00, 0.000, 0.000, 0.000, 15:44:45.136, 1587847485136
80, 80.14, -296.37, 23.51, -27.86, 0.000, 0.000, 0.000, 15:44:45.136, 1587847485136
81, 38.65, -354.31, -27.49, -11.11, 0.000, 0.000, 0.000, 15:44:45.152, 1587847485152
82, 267.47, -127.97, 208.21, 75.22, 0.000, 0.000, 0.000, 15:44:45.152, 1587847485152
83, 188.76, -204.93, 131.46, 1.65, 0.000, 0.000, 0.000, 15:44:45.153, 1587847485153
84, -12.55, -385.79, -75.88, -36.72, 0.000, 0.000, 0.000, 15:44:45.153, 1587847485153
85, 190.45, -182.72, 142.09, 62.49, 0.000, 0.000, 0.000, 15:44:45.167, 1587847485167
86, 250.83, -137.95, 178.21, 47.36, 0.000, 0.000, 0.000, 15:44:45.167, 1587847485167
87, 29.35, -354.98, -29.91, -46.28, 0.000, 0.000, 0.000, 15:44:45.182, 1587847485182
88, 109.82, -277.98, 52.07, 31.10, 0.000, 0.000, 0.000, 15:44:45.182, 1587847485182
89, 282.77, -107.34, 216.87, 71.27, 0.000, 0.000, 0.000, 15:44:45.183, 1587847485183
90, 102.59, -288.88, 32.24, -30.57, 0.000, 0.000, 0.000, 15:44:45.183, 1587847485183
91, 26.05, -356.13, -41.04, -17.84, 0.000, 0.000, 0.000, 15:44:45.197, 1587847485197
92, 242.49, -128.52, 188.05, 82.07, 0.000, 0.000, 0.000, 15:44:45.197, 1587847485197
93, 194.25, -202.17, 107.25, 3.43, 0.000, 0.000, 0.000, 15:44:45.212, 1587847485212
94, 14.25, -378.93, -64.30, -47.14, 0.000, 0.000, 0.000, 15:44:45.212, 1587847485212
95, 207.20, -173.29, 140.02, 65.92, 0.000, 0.000, 0.000, 15:44:45.213, 1587847485213
96, 264.40, -122.87, 203.81, 42.31, 0.000, 0.000, 0.000, 15:44:45.213, 1587847485213
97, 28.18, -354.23, -35.27, -50.83, 0.000, 0.000, 0.000, 15:44:45.226, 1587847485226
98, 102.74, -279.95, 46.39, 26.13, 0.000, 0.000, 0.000, 15:44:45.226, 1587847485226
99, 288.19, -105.65, 217.76, 68.48, 0.000, 0.000, 0.000, 15:44:45.242, 1587847485242
100, 93.26, -287.64, 25.96, -27.17, 0.000, 0.000, 0.000, 15:44:45.242, 1587847485242
101, 35.28, -350.89, -21.66, -12.03, 0.000, 0.000, 0.000, 15:44:45.242, 1587847485242
102, 264.28, -129.97, 186.22, 80.00, 0.000, 0.000, 0.000, 15:44:45.242, 1587847485242
103, 182.22, -202.52, 118.51, 3.04, 0.000, 0.000, 0.000, 15:44:45.256, 1587847485256
104, -8.27, -384.59, -69.79, -43.27, 0.000, 0.000, 0.000, 15:44:45.256, 1587847485256
105, 179.41, -201.33, 116.81, 61.82, 0.000, 0.000, 0.000, 15:44:45.272, 1587847485272
106, 272.33, -130.35, 186.97, 44.42, 0.000, 0.000, 0.000, 15:44:45.272, 1587847485272
107, 43.11, -350.36, -31.78, -45.67, 0.000, 0.000, 0.000, 15:44:45.273, 1587847485273
108, 104.11, -292.04, 28.98, 23.86, 0.000, 0.000, 0.000, 15:44:45.273, 1587847485273
109, 297.42, -103.15, 221.73, 68.88, 0.000, 0.000, 0.000, 15:44:45.286, 1587847485286
110, 101.17, -285.51, 21.68, -34.20, 0.000, 0.000, 0.000, 15:44:45.286, 1587847485286
111, 35.55, -353.83, -38.06, -16.63, 0.000, 0.000, 0.000, 15:44:45.302, 1587847485302
112, 255.41, -136.45, 188.46, 80.35, 0.000, 0.000, 0.000, 15:44:45.302, 1587847485302
113, 195.77, -189.25, 114.01, 5.70, 0.000, 0.000, 0.000, 15:44:45.303, 1587847485303
114, 6.56, -373.31, -63.16, -44.20, 0.000, 0.000, 0.000, 15:44:45.303, 1587847485303
115, 193.06, -198.67, 117.34, 61.01, 0.000, 0.000, 0.000, 15:44:45.316, 1587847485316
116, 266.44, -127.83, 180.48, 43.89, 0.000, 0.000, 0.000, 15:44:45.316, 1587847485316
117, 39.79, -348.06, -29.03, -48.97, 0.000, 0.000, 0.000, 15:44:45.332, 1587847485332
118, 99.80, -279.91, 35.57, 27.16, 0.000, 0.000, 0.000, 15:44:45.332, 1587847485332
119, 284.78, -99.88, 220.62, 69.85, 0.000, 0.000, 0.000, 15:44:45.333, 1587847485333
120, 100.71, -282.05, 25.15, -34.43, 0.000, 0.000, 0.000, 15:44:45.333, 1587847485333
121, 22.82, -351.85, -41.09, -15.15, 0.000, 0.000, 0.000, 15:44:45.363, 1587847485363
122, 257.38, -117.06, 183.42, 76.62, 0.000, 0.000, 0.000, 15:44:45.363, 1587847485363
123, 199.07, -192.67, 132.86, 7.96, 0.000, 0.000, 0.000, 15:44:45.364, 1587847485364
124, 13.76, -369.39, -51.18, -44.76, 0.000, 0.000, 0.000, 15:44:45.364, 1587847485364
125, 195.92, -193.01, 127.21, 65.64, 0.000, 0.000, 0.000, 15:44:45.365, 1587847485365
126, 260.67, -128.07, 187.23, 38.98, 0.000, 0.000, 0.000, 15:44:45.365, 1587847485365
127, 31.72, -352.86, -40.16, -49.88, 0.000, 0.000, 0.000, 15:44:45.377, 1587847485377
128, 91.60, -296.38, 24.89, 21.08, 0.000, 0.000, 0.000, 15:44:45.377, 1587847485377
129, 274.96, -110.77, 208.58, 69.87, 0.000, 0.000, 0.000, 15:44:45.392, 1587847485392
130, 102.02, -285.36, 35.85, -35.42, 0.000, 0.000, 0.000, 15:44:45.392, 1587847485392
131, 20.96, -354.33, -38.55, -15.23, 0.000, 0.000, 0.000, 15:44:45.394, 1587847485394
132, 251.00, -132.96, 187.66, 76.53, 0.000, 0.000, 0.000, 15:44:45.394, 1587847485394
133, 175.96, -207.04, 116.97, 2.85, 0.000, 0.000, 0.000, 15:44:45.406, 1587847485406
134, -0.38, -380.28, -52.30, -42.02, 0.000, 0.000, 0.000, 15:44:45.406, 1587847485406
135, 175.87, -203.49, 122.31, 57.23, 0.000, 0.000, 0.000, 15:44:45.423, 1587847485423
136, 260.92, -128.46, 201.57, 45.50, 0.000, 0.000, 0.000, 15:44:45.423, 1587847485423
137, 30.35, -350.46, -39.74, -51.70, 0.000, 0.000, 0.000, 15:44:45.424, 1587847485424
138, 85.64, -297.21, 26.25, 19.50, 0.000, 0.000, 0.000, 15:44:45.424, 1587847485424
139, 290.07, -101.27, 221.23, 70.91, 0.000, 0.000, 0.000, 15:44:45.436, 1587847485436
140, 93.15, -289.42, 31.30, -31.69, 0.000, 0.000, 0.000, 15:44:45.436, 1587847485436
141, 28.48, -351.41, -35.54, -17.56, 0.000, 0.000, 0.000, 15:44:45.452, 1587847485452
142, 248.97, -128.76, 196.34, 77.46, 0.000, 0.000, 0.000, 15:44:45.452, 1587847485452
143, 196.83, -192.32, 120.16, 9.19, 0.000, 0.000, 0.000, 15:44:45.453, 1587847485453
144, -6.57, -382.11, -66.72, -38.16, 0.000, 0.000, 0.000, 15:44:45.453, 1587847485453
145, 161.89, -206.87, 111.67, 63.83, 0.000, 0.000, 0.000, 15:44:45.466, 1587847485466
146, 247.13, -123.63, 197.49, 42.60, 0.000, 0.000, 0.000, 15:44:45.466, 1587847485466
147, 46.62, -345.44, -33.42, -48.22, 0.000, 0.000, 0.000, 15:44:45.482, 1587847485482
148, 110.42, -281.92, 38.91, 22.26, 0.000, 0.000, 0.000, 15:44:45.482, 1587847485482
149, 279.58, -115.24, 209.94, 73.69, 0.000, 0.000, 0.000, 15:44:45.483, 1587847485483
150, 100.66, -286.47, 40.16, -25.79, 0.000, 0.000, 0.000, 15:44:45.483, 1587847485483
151, 23.63, -354.12, -40.08, -15.45, 0.000, 0.000, 0.000, 15:44:45.498, 1587847485498
152, 254.53, -129.17, 193.12, 75.18, 0.000, 0.000, 0.000, 15:44:45.498, 1587847485498
153, 202.47, -180.91, 133.35, 11.52, 0.000, 0.000, 0.000, 15:44:45.512, 1587847485512
154, -17.71, -390.52, -77.55, -46.50, 0.000, 0.000, 0.000, 15:44:45.512, 1587847485512
155, 176.83, -201.56, 117.27, 55.93, 0.000, 0.000, 0.000, 15:44:45.514, 1587847485514
156, 253.67, -129.50, 190.82, 48.81, 0.000, 0.000, 0.000, 15:44:45.514, 1587847485514
157, 24.46, -350.80, -27.51, -51.60, 0.000, 0.000, 0.000, 15:44:45.527, 1587847485527
158, 85.93, -290.03, 35.59, 21.00, 0.000, 0.000, 0.000, 15:44:45.527, 1587847485527
159, 278.71, -109.39, 218.20, 74.06, 0.000, 0.000, 0.000, 15:44:45.542, 1587847485542
160, 110.85, -275.33, 54.25, -22.54, 0.000, 0.000, 0.000, 15:44:45.542, 1587847485542
161, 25.83, -361.25, -44.52, -17.03, 0.000, 0.000, 0.000, 15:44:45.543, 1587847485543
162, 243.01, -137.20, 181.97, 79.25, 0.000, 0.000, 0.000, 15:44:45.543, 1587847485543
163, 187.59, -195.68, 135.31, 9.08, 0.000, 0.000, 0.000, 15:44:45.557, 1587847485557
164, -10.14, -377.14, -51.16, -43.30, 0.000, 0.000, 0.000, 15:44:45.557, 1587847485557
165, 193.72, -194.26, 129.73, 61.28, 0.000, 0.000, 0.000, 15:44:45.572, 1587847485572
166, 258.01, -128.76, 199.87, 45.82, 0.000, 0.000, 0.000, 15:44:45.572, 1587847485572
167, 37.23, -347.78, -31.09, -45.81, 0.000, 0.000, 0.000, 15:44:45.573, 1587847485573
168, 87.22, -290.88, 20.76, 25.11, 0.000, 0.000, 0.000, 15:44:45.573, 1587847485573
169, 272.85, -103.19, 216.27, 73.46, 0.000, 0.000, 0.000, 15:44:45.586, 1587847485586
170, 103.94, -279.46, 30.53, -28.30, 0.000, 0.000, 0.000, 15:44:45.586, 1587847485586
171, 33.32, -353.18, -34.52, -19.73, 0.000, 0.000, 0.000, 15:44:45.603, 1587847485603
172, 264.79, -130.97, 192.31, 75.20, 0.000, 0.000, 0.000, 15:44:45.603, 1587847485603
173, 207.57, -186.13, 143.78, 11.40, 0.000, 0.000, 0.000, 15:44:45.603, 1587847485603
174, -4.73, -386.18, -69.61, -37.14, 0.000, 0.000, 0.000, 15:44:45.603, 1587847485603
175, 172.02, -205.54, 122.45, 57.40, 0.000, 0.000, 0.000, 15:44:45.616, 1587847485616
176, 248.58, -125.22, 198.82, 46.57, 0.000, 0.000, 0.000, 15:44:45.616, 1587847485616
177, 37.51, -346.08, -31.15, -43.10, 0.000, 0.000, 0.000, 15:44:45.632, 1587847485632
178, 90.10, -293.05, 41.69, 19.11, 0.000, 0.000, 0.000, 15:44:45.632, 1587847485632
179, 292.06, -102.32, 226.99, 71.84, 0.000, 0.000, 0.000, 15:44:45.634, 1587847485634
180, 107.54, -279.86, 42.70, -27.97, 0.000, 0.000, 0.000, 15:44:45.634, 1587847485634
181, 16.25, -356.19, -37.24, -14.71, 0.000, 0.000, 0.000, 15:44:45.646, 1587847485646
182, 248.25, -132.80, 182.83, 71.57, 0.000, 0.000, 0.000, 15:44:45.646, 1587847485646
183, 196.58, -195.55, 129.42, 11.14, 0.000, 0.000, 0.000, 15:44:45.663, 1587847485663
184, -3.68, -388.99, -57.75, -44.67, 0.000, 0.000, 0.000, 15:44:45.663, 1587847485663
185, 181.85, -201.39, 131.06, 60.78, 0.000, 0.000, 0.000, 15:44:45.664, 1587847485664
186, 252.71, -135.89, 198.74, 48.77, 0.000, 0.000, 0.000, 15:44:45.664, 1587847485664
187, 34.33, -342.53, -26.98, -49.18, 0.000, 0.000, 0.000, 15:44:45.676, 1587847485676
188, 93.03, -286.32, 38.45, 19.73, 0.000, 0.000, 0.000, 15:44:45.676, 1587847485676
189, 274.49, -113.73, 217.97, 72.86, 0.000, 0.000, 0.000, 15:44:45.693, 1587847485693
190, 104.69, -273.96, 60.95, -26.33, 0.000, 0.000, 0.000, 15:44:45.693, 1587847485693
191, 12.40, -363.93, -27.11, -17.23, 0.000, 0.000, 0.000, 15:44:45.696, 1587847485696
192, 252.09, -138.20, 191.80, 74.32, 0.000, 0.000, 0.000, 15:44:45.696, 1587847485696
193, 206.42, -184.70, 134.42, 12.47, 0.000, 0.000, 0.000, 15:44:45.706, 1587847485706
194, 6.52, -377.69, -50.88, -42.79, 0.000, 0.000, 0.000, 15:44:45.706, 1587847485706
195, 171.67, -212.66, 119.35, 54.80, 0.000, 0.000, 0.000, 15:44:45.722, 1587847485722
196, 256.48, -128.42, 210.67, 53.15, 0.000, 0.000, 0.000, 15:44:45.722, 1587847485722
197, 41.16, -335.27, -10.95, -46.14, 0.000, 0.000, 0.000, 15:44:45.727, 1587847485727
198, 70.00, -303.36, 36.71, 18.87, 0.000, 0.000, 0.000, 15:44:45.727, 1587847485727
199, 272.96, -111.63, 231.77, 72.98, 0.000, 0.000, 0.000, 15:44:45.737, 1587847485737
200, 109.17, -273.10, 57.82, -22.98, 0.000, 0.000, 0.000, 15:44:45.737, 1587847485737
0, 3.74, -371.50, -30.27, -17.21, 0.000, 0.000, 0.000, 15:44:45.738, 1587847485738
1, 239.07, -144.95, 191.92, 75.40, 0.000, 0.000, 0.000, 15:44:45.752, 1587847485752
2, 195.81, -191.12, 144.50, 12.57, 0.000, 0.000, 0.000, 15:44:45.752, 1587847485752
3, -11.08, -381.73, -61.70, -40.56, 0.000, 0.000, 0.000, 15:44:45.768, 1587847485768
4, 175.14, -208.82, 117.05, 57.99, 0.000, 0.000, 0.000, 15:44:45.768, 1587847485768
5, 262.93, -127.19, 197.19, 49.86, 0.000, 0.000, 0.000, 15:44:45.771, 1587847485771
6, 36.75, -351.12, -14.83, -42.06, 0.000, 0.000, 0.000, 15:44:45.771, 1587847485771
7, 86.11, -299.44, 30.06, 18.06, 0.000, 0.000, 0.000, 15:44:45.782, 1587847485782
8, 282.30, -109.28, 223.65, 73.49, 0.000, 0.000, 0.000, 15:44:45.782, 1587847485782
9, 114.83, -268.03, 48.91, -26.77, 0.000, 0.000, 0.000, 15:44:45.797, 1587847485797
10, 14.91, -360.92, -48.49, -21.05, 0.000, 0.000, 0.000, 15:44:45.797, 1587847485797
11, 238.30, -142.99, 182.65, 75.67, 0.000, 0.000, 0.000, 15:44:45.812, 1587847485812
12, 191.93, -184.56, 132.73, 9.45, 0.000, 0.000, 0.000, 15:44:45.812, 1587847485812
13, -5.72, -384.06, -58.70, -48.18, 0.000, 0.000, 0.000, 15:44:45.813, 1587847485813
14, 176.35, -204.58, 122.56, 59.62, 0.000, 0.000, 0.000, 15:44:45.813, 1587847485813
15, 250.12, -129.08, 201.00, 48.34, 0.000, 0.000, 0.000, 15:44:45.827, 1587847485827
16, 31.56, -343.24, -16.18, -44.90, 0.000, 0.000, 0.000, 15:44:45.827, 1587847485827
17, 73.40, -299.63, 28.62, 18.33, 0.000, 0.000, 0.000, 15:44:45.829, 1587847485829
18, 271.57, -109.22, 217.31, 74.10, 0.000, 0.000, 0.000, 15:44:45.829, 1587847485829
19, 103.66, -271.16, 59.75, -26.25, 0.000, 0.000, 0.000, 15:44:45.842, 1587847485842
20, 12.52, -365.59, -29.23, -23.28, 0.000, 0.000, 0.000, 15:44:45.842, 1587847485842
21, 243.71, -146.27, 179.91, 74.62, 0.000, 0.000, 0.000, 15:44:45.857, 1587847485857
22, 201.40, -181.07, 153.30, 13.38, 0.000, 0.000, 0.000, 15:44:45.857, 1587847485857
23, -7.92, -379.60, -50.20, -44.00, 0.000, 0.000, 0.000, 15:44:45.858, 1587847485858
24, 168.18, -215.05, 112.56, 55.33, 0.000, 0.000, 0.000, 15:44:45.858, 1587847485858
25, 261.24, -127.77, 190.48, 51.54, 0.000, 0.000, 0.000, 15:44:45.872, 1587847485872
26, 43.82, -338.32, -5.88, -50.24, 0.000, 0.000, 0.000, 15:44:45.872, 1587847485872
27, 71.89, -305.05, 22.50, 14.61, 0.000, 0.000, 0.000, 15:44:45.887, 1587847485887
28, 282.14, -109.87, 228.16, 76.59, 0.000, 0.000, 0.000, 15:44:45.887, 1587847485887
29, 102.80, -274.12, 55.15, -23.09, 0.000, 0.000, 0.000, 15:44:45.888, 1587847485888
30, 21.75, -360.30, -41.65, -20.07, 0.000, 0.000, 0.000, 15:44:45.888, 1587847485888
31, 231.42, -147.44, 190.31, 72.83, 0.000, 0.000, 0.000, 15:44:45.901, 1587847485901
32, 192.74, -183.13, 140.32, 13.64, 0.000, 0.000, 0.000, 15:44:45.901, 1587847485901
33, 1.29, -378.66, -46.79, -46.90, 0.000, 0.000, 0.000, 15:44:45.917, 1587847485917
34, 163.54, -209.71, 125.50, 59.54, 0.000, 0.000, 0.000, 15:44:45.917, 1587847485917
35, 255.28, -130.96, 201.04, 47.24, 0.000, 0.000, 0.000, 15:44:45.917, 1587847485917
36, 30.69, -348.68, -15.18, -48.85, 0.000, 0.000, 0.000, 15:44:45.917, 1587847485917
37, 79.09, -306.31, 15.65, 13.85, 0.000, 0.000, 0.000, 15:44:45.931, 1587847485931
38, 295.74, -97.21, 233.75, 74.95, 0.000, 0.000, 0.000, 15:44:45.931, 1587847485931
39, 106.67, -275.85, 59.23, -22.25, 0.000, 0.000, 0.000, 15:44:45.947, 1587847485947
40, 0.90, -375.94, -41.37, -19.99, 0.000, 0.000, 0.000, 15:44:45.947, 1587847485947
41, 238.29, -146.29, 197.91, 73.48, 0.000, 0.000, 0.000, 15:44:45.948, 1587847485948
42, 193.35, -190.16, 142.11, 16.65, 0.000, 0.000, 0.000, 15:44:45.948, 1587847485948
43, -9.13, -380.28, -61.44, -42.96, 0.000, 0.000, 0.000, 15:44:45.962, 1587847485962
44, 164.22, -210.86, 102.72, 49.92, 0.000, 0.000, 0.000, 15:44:45.962, 1587847485962
45, 255.74, -117.91, 218.45, 53.38, 0.000, 0.000, 0.000, 15:44:45.977, 1587847485977
46, 26.97, -347.64, -18.26, -44.01, 0.000, 0.000, 0.000, 15:44:45.977, 1587847485977
47, 73.54, -307.44, 15.53, 16.32, 0.000, 0.000, 0.000, 15:44:45.978, 1587847485978
48, 257.04, -113.00, 226.56, 78.26, 0.000, 0.000, 0.000, 15:44:45.978, 1587847485978
49, 97.94, -269.55, 48.60, -24.51, 0.000, 0.000, 0.000, 15:44:45.993, 1587847485993
50, 6.01, -366.38, -44.34, -24.93, 0.000, 0.000, 0.000, 15:44:45.993, 1587847485993
51, 236.06, -147.51, 187.03, 76.75, 0.000, 0.000, 0.000, 15:44:46.007, 1587847486007
52, 201.08, -184.04, 154.90, 14.13, 0.000, 0.000, 0.000, 15:44:46.007, 1587847486007
53, -2.37, -383.18, -46.50, -44.93, 0.000, 0.000, 0.000, 15:44:46.008, 1587847486008
54, 168.52, -213.62, 124.80, 55.02, 0.000, 0.000, 0.000, 15:44:46.008, 1587847486008
55, 251.22, -127.05, 197.20, 48.86, 0.000, 0.000, 0.000, 15:44:46.022, 1587847486022
56, 47.81, -330.57, -15.84, -42.40, 0.000, 0.000, 0.000, 15:44:46.022, 1587847486022
57, 82.59, -306.28, 21.82, 15.11, 0.000, 0.000, 0.000, 15:44:46.037, 1587847486037
58, 277.01, -102.59, 228.43, 79.83, 0.000, 0.000, 0.000, 15:44:46.037, 1587847486037
59, 126.30, -269.46, 63.33, -19.11, 0.000, 0.000, 0.000, 15:44:46.038, 1587847486038
60, -1.34, -373.63, -40.84, -24.97, 0.000, 0.000, 0.000, 15:44:46.038, 1587847486038
61, 228.20, -144.14, 189.25, 72.71, 0.000, 0.000, 0.000, 15:44:46.068, 1587847486068
62, 211.56, -173.80, 153.86, 20.48, 0.000, 0.000, 0.000, 15:44:46.068, 1587847486068
63, -11.86, -390.22, -63.10, -50.61, 0.000, 0.000, 0.000, 15:44:46.069, 1587847486069
64, 161.53, -223.47, 97.63, 52.37, 0.000, 0.000, 0.000, 15:44:46.069, 1587847486069
65, 261.71, -122.18, 216.07, 55.40, 0.000, 0.000, 0.000, 15:44:46.070, 1587847486070
66, 24.15, -346.43, -5.97, -42.57, 0.000, 0.000, 0.000, 15:44:46.070, 1587847486070
67, 72.66, -301.47, 26.92, 14.77, 0.000, 0.000, 0.000, 15:44:46.082, 1587847486082
68, 279.27, -104.72, 231.63, 75.65, 0.000, 0.000, 0.000, 15:44:46.082, 1587847486082
69, 100.67, -272.62, 59.86, -21.86, 0.000, 0.000, 0.000, 15:44:46.097, 1587847486097
70, -0.15, -370.61, -33.75, -19.72, 0.000, 0.000, 0.000, 15:44:46.097, 1587847486097
71, 234.05, -147.26, 180.70, 80.29, 0.000, 0.000, 0.000, 15:44:46.112, 1587847486112
72, 199.36, -186.52, 154.45, 18.95, 0.000, 0.000, 0.000, 15:44:46.112, 1587847486112
73, -9.22, -380.91, -44.42, -41.73, 0.000, 0.000, 0.000, 15:44:46.113, 1587847486113
74, 163.84, -213.71, 118.75, 52.15, 0.000, 0.000, 0.000, 15:44:46.113, 1587847486113
75, 252.54, -129.69, 204.25, 52.16, 0.000, 0.000, 0.000, 15:44:46.128, 1587847486128
76, 43.11, -347.11, -14.77, -42.29, 0.000, 0.000, 0.000, 15:44:46.128, 1587847486128
77, 68.09, -315.57, 23.88, 15.00, 0.000, 0.000, 0.000, 15:44:46.136, 1587847486136
78, 269.67, -105.85, 230.37, 73.74, 0.000, 0.000, 0.000, 15:44:46.136, 1587847486136
79, 115.44, -260.52, 70.05, -19.94, 0.000, 0.000, 0.000, 15:44:46.142, 1587847486142
80, 9.62, -371.27, -39.33, -19.21, 0.000, 0.000, 0.000, 15:44:46.142, 1587847486142
81, 233.15, -155.04, 189.67, 78.75, 0.000, 0.000, 0.000, 15:44:46.157, 1587847486157
82, 199.25, -185.86, 145.40, 20.00, 0.000, 0.000, 0.000, 15:44:46.157, 1587847486157
83, 3.45, -380.41, -62.49, -43.52, 0.000, 0.000, 0.000, 15:44:46.158, 1587847486158
84, 162.42, -217.39, 111.74, 53.46, 0.000, 0.000, 0.000, 15:44:46.158, 1587847486158
85, 255.70, -122.14, 215.05, 55.00, 0.000, 0.000, 0.000, 15:44:46.173, 1587847486173
86, 41.62, -340.28, -12.78, -39.35, 0.000, 0.000, 0.000, 15:44:46.173, 1587847486173
87, 76.69, -311.95, 24.40, 12.89, 0.000, 0.000, 0.000, 15:44:46.187, 1587847486187
88, 278.92, -112.98, 224.42, 77.43, 0.000, 0.000, 0.000, 15:44:46.187, 1587847486187
89, 124.20, -261.04, 75.02, -20.91, 0.000, 0.000, 0.000, 15:44:46.189, 1587847486189
90, 2.35, -370.35, -35.16, -22.30, 0.000, 0.000, 0.000, 15:44:46.189, 1587847486189
91, 237.72, -146.21, 192.69, 74.90, 0.000, 0.000, 0.000, 15:44:46.218, 1587847486218
92, 200.72, -184.04, 157.72, 23.85, 0.000, 0.000, 0.000, 15:44:46.218, 1587847486218
93, 3.22, -375.01, -40.86, -39.66, 0.000, 0.000, 0.000, 15:44:46.219, 1587847486219
94, 147.28, -236.31, 100.54, 48.79, 0.000, 0.000, 0.000, 15:44:46.219, 1587847486219
95, 255.63, -130.45, 209.74, 55.12, 0.000, 0.000, 0.000, 15:44:46.219, 1587847486219
96, 42.78, -333.62, -3.61, -42.91, 0.000, 0.000, 0.000, 15:44:46.219, 1587847486219
97, 48.31, -318.02, 10.87, 12.03, 0.000, 0.000, 0.000, 15:44:46.232, 1587847486232
98, 270.34, -115.32, 235.63, 79.08, 0.000, 0.000, 0.000, 15:44:46.232, 1587847486232
99, 119.43, -266.66, 70.74, -19.11, 0.000, 0.000, 0.000, 15:44:46.247, 1587847486247
100, 13.82, -368.11, -31.02, -23.07, 0.000, 0.000, 0.000, 15:44:46.247, 1587847486247
101, 221.89, -163.41, 175.26, 76.95, 0.000, 0.000, 0.000, 15:44:46.248, 1587847486248
102, 210.88, -180.57, 150.92, 22.97, 0.000, 0.000, 0.000, 15:44:46.248, 1587847486248
103, 1.03, -381.69, -48.98, -44.66, 0.000, 0.000, 0.000, 15:44:46.262, 1587847486262
104, 150.71, -234.96, 105.81, 46.57, 0.000, 0.000, 0.000, 15:44:46.262, 1587847486262
105, 265.18, -128.62, 227.31, 57.29, 0.000, 0.000, 0.000, 15:44:46.277, 1587847486277
106, 39.75, -346.83, 2.85, -45.19, 0.000, 0.000, 0.000, 15:44:46.278, 1587847486278
107, 56.90, -324.42, 13.95, 6.11, 0.000, 0.000, 0.000, 15:44:46.278, 1587847486278
108, 269.33, -115.47, 222.66, 71.72, 0.000, 0.000, 0.000, 15:44:46.278, 1587847486278
109, 121.77, -266.49, 77.67, -19.62, 0.000, 0.000, 0.000, 15:44:46.291, 1587847486291
110, 12.33, -365.47, -40.68, -25.47, 0.000, 0.000, 0.000, 15:44:46.291, 1587847486291
111, 225.85, -161.81, 177.80, 75.62, 0.000, 0.000, 0.000, 15:44:46.307, 1587847486307
112, 193.92, -194.24, 146.28, 19.13, 0.000, 0.000, 0.000, 15:44:46.307, 1587847486307
113, -12.79, -383.98, -48.08, -44.75, 0.000, 0.000, 0.000, 15:44:46.309, 1587847486309
114, 156.80, -230.66, 111.07, 51.32, 0.000, 0.000, 0.000, 15:44:46.309, 1587847486309
115, 275.64, -126.56, 211.40, 53.63, 0.000, 0.000, 0.000, 15:44:46.322, 1587847486322
116, 44.63, -353.97, -15.38, -45.50, 0.000, 0.000, 0.000, 15:44:46.322, 1587847486322
117, 56.30, -327.62, 22.78, 11.44, 0.000, 0.000, 0.000, 15:44:46.337, 1587847486337
118, 270.13, -116.50, 220.99, 75.24, 0.000, 0.000, 0.000, 15:44:46.337, 1587847486337
119, 125.96, -265.62, 68.23, -17.67, 0.000, 0.000, 0.000, 15:44:46.337, 1587847486337
120, 8.25, -372.20, -33.71, -24.36, 0.000, 0.000, 0.000, 15:44:46.337, 1587847486337
121, 238.53, -151.27, 187.00, 70.84, 0.000, 0.000, 0.000, 15:44:46.352, 1587847486352
122, 211.35, -181.29, 154.53, 20.21, 0.000, 0.000, 0.000, 15:44:46.352, 1587847486352
123, 2.38, -381.93, -49.13, -50.71, 0.000, 0.000, 0.000, 15:44:46.367, 1587847486367
124, 148.12, -235.97, 105.93, 49.07, 0.000, 0.000, 0.000, 15:44:46.367, 1587847486367
125, 262.36, -124.78, 214.75, 54.05, 0.000, 0.000, 0.000, 15:44:46.368, 1587847486368
126, 42.02, -341.98, -7.02, -44.18, 0.000, 0.000, 0.000, 15:44:46.368, 1587847486368
127, 56.41, -325.08, 15.93, 13.65, 0.000, 0.000, 0.000, 15:44:46.382, 1587847486382
128, 272.73, -113.67, 218.74, 79.39, 0.000, 0.000, 0.000, 15:44:46.382, 1587847486382
129, 111.89, -271.27, 64.13, -17.75, 0.000, 0.000, 0.000, 15:44:46.397, 1587847486397
130, 19.50, -369.29, -29.40, -29.58, 0.000, 0.000, 0.000, 15:44:46.397, 1587847486397
131, 215.23, -167.48, 178.01, 77.32, 0.000, 0.000, 0.000, 15:44:46.399, 1587847486399
132, 193.97, -189.42, 147.70, 22.45, 0.000, 0.000, 0.000, 15:44:46.399, 1587847486399
133, -15.54, -387.42, -58.23, -44.90, 0.000, 0.000, 0.000, 15:44:46.412, 1587847486412
134, 156.17, -233.61, 103.43, 48.02, 0.000, 0.000, 0.000, 15:44:46.412, 1587847486412
135, 264.70, -130.35, 204.17, 49.33, 0.000, 0.000, 0.000, 15:44:46.427, 1587847486427
136, 39.03, -343.19, -16.52, -50.11, 0.000, 0.000, 0.000, 15:44:46.427, 1587847486427
137, 63.58, -316.00, 5.88, 15.74, 0.000, 0.000, 0.000, 15:44:46.427, 1587847486427
138, 280.35, -105.28, 227.16, 75.19, 0.000, 0.000, 0.000, 15:44:46.427, 1587847486427
139, 120.10, -265.32, 65.76, -15.33, 0.000, 0.000, 0.000, 15:44:46.442, 1587847486442
140, -2.31, -386.95, -46.14, -28.69, 0.000, 0.000, 0.000, 15:44:46.442, 1587847486442
141, 228.18, -159.30, 180.32, 75.30, 0.000, 0.000, 0.000, 15:44:46.474, 1587847486474
142, 208.23, -180.79, 152.55, 22.51, 0.000, 0.000, 0.000, 15:44:46.474, 1587847486474
143, -5.43, -387.04, -59.43, -45.34, 0.000, 0.000, 0.000, 15:44:46.475, 1587847486475
144, 153.91, -230.60, 101.19, 49.91, 0.000, 0.000, 0.000, 15:44:46.475, 1587847486475
145, 259.66, -129.36, 207.54, 55.60, 0.000, 0.000, 0.000, 15:44:46.475, 1587847486475
146, 44.75, -335.27, 8.19, -41.80, 0.000, 0.000, 0.000, 15:44:46.475, 1587847486475
147, 62.18, -319.60, 24.31, 12.09, 0.000, 0.000, 0.000, 15:44:46.476, 1587847486476
148, 272.78, -117.89, 223.53, 73.32, 0.000, 0.000, 0.000, 15:44:46.476, 1587847486476
149, 135.75, -255.16, 86.16, -11.91, 0.000, 0.000, 0.000, 15:44:46.487, 1587847486487
150, 1.89, -383.38, -40.55, -25.14, 0.000, 0.000, 0.000, 15:44:46.487, 1587847486487
151, 221.98, -169.09, 177.68, 73.03, 0.000, 0.000, 0.000, 15:44:46.504, 1587847486504
152, 217.66, -176.97, 164.54, 22.92, 0.000, 0.000, 0.000, 15:44:46.504, 1587847486504
153, 4.92, -373.82, -44.02, -48.81, 0.000, 0.000, 0.000, 15:44:46.537, 1587847486537
154, 145.63, -240.17, 89.54, 50.21, 0.000, 0.000, 0.000, 15:44:46.537, 1587847486537
155, 267.34, -124.41, 213.48, 54.19, 0.000, 0.000, 0.000, 15:44:46.539, 1587847486539
156, 48.92, -337.67, 3.74, -42.42, 0.000, 0.000, 0.000, 15:44:46.539, 1587847486539
157, 55.72, -332.39, 13.04, 13.99, 0.000, 0.000, 0.000, 15:44:46.540, 1587847486540
158, 260.67, -129.86, 217.37, 76.04, 0.000, 0.000, 0.000, 15:44:46.540, 1587847486540
159, 124.46, -263.31, 71.48, -14.71, 0.000, 0.000, 0.000, 15:44:46.541, 1587847486541
160, -7.94, -389.52, -51.91, -24.92, 0.000, 0.000, 0.000, 15:44:46.541, 1587847486541
161, 219.03, -167.06, 171.59, 77.17, 0.000, 0.000, 0.000, 15:44:46.547, 1587847486547
162, 182.67, -184.57, 151.58, 21.64, 0.000, 0.000, 0.000, 15:44:46.547, 1587847486547
163, -3.53, -377.88, -37.10, -52.66, 0.000, 0.000, 0.000, 15:44:46.563, 1587847486563
164, 148.29, -241.16, 97.24, 50.97, 0.000, 0.000, 0.000, 15:44:46.563, 1587847486563
165, 252.09, -136.26, 197.28, 54.66, 0.000, 0.000, 0.000, 15:44:46.577, 1587847486577
166, 33.81, -345.60, -10.70, -39.47, 0.000, 0.000, 0.000, 15:44:46.577, 1587847486577
167, 69.64, -313.16, 22.91, 8.12, 0.000, 0.000, 0.000, 15:44:46.578, 1587847486578
168, 274.63, -127.57, 207.97, 77.96, 0.000, 0.000, 0.000, 15:44:46.578, 1587847486578
169, 88.92, -301.66, 28.84, -19.76, 0.000, 0.000, 0.000, 15:44:46.592, 1587847486592
170, -19.25, -394.86, -57.53, -23.43, 0.000, 0.000, 0.000, 15:44:46.592, 1587847486592
171, 211.66, -171.44, 173.36, 74.70, 0.000, 0.000, 0.000, 15:44:46.607, 1587847486607
172, 181.69, -205.58, 126.53, 23.63, 0.000, 0.000, 0.000, 15:44:46.607, 1587847486607
173, -47.76, -425.76, -85.79, -46.25, 0.000, 0.000, 0.000, 15:44:46.628, 1587847486628
174, 132.02, -250.14, 95.33, 45.91, 0.000, 0.000, 0.000, 15:44:46.628, 1587847486628
175, 227.45, -155.82, 193.19, 53.36, 0.000, 0.000, 0.000, 15:44:46.629, 1587847486629
176, 97.15, -273.74, 64.60, -42.23, 0.000, 0.000, 0.000, 15:44:46.629, 1587847486629
177, 9.20, -356.77, -12.00, 13.61, 0.000, 0.000, 0.000, 15:44:46.638, 1587847486638
178, 281.90, -106.45, 231.91, 77.49, 0.000, 0.000, 0.000, 15:44:46.638, 1587847486638
179, 175.35, -209.93, 132.04, -11.27, 0.000, 0.000, 0.000, 15:44:46.638, 1587847486638
180, -60.98, -440.57, -107.62, -28.06, 0.000, 0.000, 0.000, 15:44:46.638, 1587847486638
181, 161.06, -211.30, 139.58, 75.52, 0.000, 0.000, 0.000, 15:44:46.652, 1587847486652
182, 252.39, -135.40, 194.59, 26.83, 0.000, 0.000, 0.000, 15:44:46.652, 1587847486652
183, 2.47, -370.75, -53.65, -46.70, 0.000, 0.000, 0.000, 15:44:46.668, 1587847486668
184, 90.30, -275.17, 62.69, 42.64, 0.000, 0.000, 0.000, 15:44:46.668, 1587847486668
185, 310.22, -68.70, 249.78, 55.86, 0.000, 0.000, 0.000, 15:44:46.670, 1587847486670
186, 18.22, -353.96, -33.97, -38.99, 0.000, 0.000, 0.000, 15:44:46.670, 1587847486670
187, -53.09, -419.32, -90.20, 7.31, 0.000, 0.000, 0.000, 15:44:46.682, 1587847486682
188, 256.03, -111.31, 222.85, 80.64, 0.000, 0.000, 0.000, 15:44:46.682, 1587847486682
189, 134.80, -234.61, 87.13, -13.20, 0.000, 0.000, 0.000, 15:44:46.697, 1587847486697
190, -20.15, -383.17, -56.63, -30.35, 0.000, 0.000, 0.000, 15:44:46.697, 1587847486697
191, 201.65, -170.50, 164.65, 70.77, 0.000, 0.000, 0.000, 15:44:46.698, 1587847486698
192, 191.42, -179.46, 148.12, 29.36, 0.000, 0.000, 0.000, 15:44:46.698, 1587847486698
193, -43.58, -398.83, -78.18, -47.95, 0.000, 0.000, 0.000, 15:44:46.711, 1587847486711
194, 162.87, -208.12, 115.48, 48.60, 0.000, 0.000, 0.000, 15:44:46.711, 1587847486711
195, 227.60, -144.06, 179.34, 62.75, 0.000, 0.000, 0.000, 15:44:46.727, 1587847486727
196, -1.57, -353.33, -30.29, -39.70, 0.000, 0.000, 0.000, 15:44:46.727, 1587847486727
197, 17.52, -336.51, -8.51, 4.90, 0.000, 0.000, 0.000, 15:44:46.728, 1587847486728
198, 252.09, -112.84, 218.05, 85.89, 0.000, 0.000, 0.000, 15:44:46.728, 1587847486728
199, 133.64, -247.79, 70.68, -10.10, 0.000, 0.000, 0.000, 15:44:46.742, 1587847486742
200, 16.24, -350.07, -26.37, -32.99, 0.000, 0.000, 0.000, 15:44:46.742, 1587847486742
0, 176.02, -186.46, 141.24, 75.59, 0.000, 0.000, 0.000, 15:44:46.744, 1587847486744
1, 201.28, -162.97, 164.36, 29.57, 0.000, 0.000, 0.000, 15:44:46.773, 1587847486773
2, -18.58, -371.12, -54.21, -50.91, 0.000, 0.000, 0.000, 15:44:46.773, 1587847486773
3, 87.33, -270.07, 53.54, 48.18, 0.000, 0.000, 0.000, 15:44:46.774, 1587847486774
4, 285.81, -69.95, 256.54, 56.78, 0.000, 0.000, 0.000, 15:44:46.774, 1587847486774
5, 42.12, -332.53, -14.98, -35.83, 0.000, 0.000, 0.000, 15:44:46.775, 1587847486775
6, 50.68, -317.09, -2.66, 2.39, 0.000, 0.000, 0.000, 15:44:46.775, 1587847486775
7, 282.14, -95.08, 221.44, 76.34, 0.000, 0.000, 0.000, 15:44:46.786, 1587847486786
8, 93.91, -274.21, 34.37, -11.44, 0.000, 0.000, 0.000, 15:44:46.786, 1587847486786
9, -30.26, -372.91, -70.67, -28.82, 0.000, 0.000, 0.000, 15:44:46.802, 1587847486802
10, 213.45, -134.33, 167.93, 68.56, 0.000, 0.000, 0.000, 15:44:46.802, 1587847486802
11, 190.95, -170.92, 146.67, 32.68, 0.000, 0.000, 0.000, 15:44:46.803, 1587847486803
12, 6.32, -342.05, 0.28, -50.05, 0.000, 0.000, 0.000, 15:44:46.803, 1587847486803
13, 98.34, -229.30, 99.54, 47.18, 0.000, 0.000, 0.000, 15:44:46.816, 1587847486816
14, 270.90, -118.08, 207.75, 61.17, 0.000, 0.000, 0.000, 15:44:46.816, 1587847486816
15, 15.70, -350.28, -23.44, -38.82, 0.000, 0.000, 0.000, 15:44:46.833, 1587847486833
16, 51.93, -309.72, 8.82, 10.72, 0.000, 0.000, 0.000, 15:44:46.833, 1587847486833
17, 251.07, -113.47, 195.76, 83.04, 0.000, 0.000, 0.000, 15:44:46.834, 1587847486834
18, 101.85, -249.04, 59.29, -4.93, 0.000, 0.000, 0.000, 15:44:46.834, 1587847486834
19, -40.23, -365.67, -37.69, -25.03, 0.000, 0.000, 0.000, 15:44:46.847, 1587847486847
20, 179.86, -148.75, 177.88, 81.73, 0.000, 0.000, 0.000, 15:44:46.847, 1587847486847
21, 235.88, -131.38, 180.99, 34.23, 0.000, 0.000, 0.000, 15:44:46.862, 1587847486862
22, 2.21, -374.25, -47.55, -38.85, 0.000, 0.000, 0.000, 15:44:46.862, 1587847486862
23, 127.95, -267.40, 49.72, 55.13, 0.000, 0.000, 0.000, 15:44:46.863, 1587847486863
24, 285.91, -85.05, 233.39, 63.46, 0.000, 0.000, 0.000, 15:44:46.863, 1587847486863
25, 32.98, -312.89, 7.48, -33.94, 0.000, 0.000, 0.000, 15:44:46.876, 1587847486876
26, 32.99, -316.57, 4.72, 9.56, 0.000, 0.000, 0.000, 15:44:46.876, 1587847486876
27, 247.47, -104.01, 214.90, 84.74, 0.000, 0.000, 0.000, 15:44:46.892, 1587847486892
28, 119.16, -246.46, 69.79, -0.65, 0.000, 0.000, 0.000, 15:44:46.892, 1587847486892
29, -4.50, -352.75, -36.48, -29.60, 0.000, 0.000, 0.000, 15:44:46.893, 1587847486893
30, 208.22, -152.23, 165.19, 79.51, 0.000, 0.000, 0.000, 15:44:46.893, 1587847486893
31, 190.24, -155.41, 153.23, 33.48, 0.000, 0.000, 0.000, 15:44:46.906, 1587847486906
32, -24.37, -382.74, -68.36, -44.07, 0.000, 0.000, 0.000, 15:44:46.906, 1587847486906
33, 159.33, -215.47, 99.74, 48.08, 0.000, 0.000, 0.000, 15:44:46.923, 1587847486923
34, 218.09, -145.75, 189.37, 69.15, 0.000, 0.000, 0.000, 15:44:46.923, 1587847486923
35, 41.91, -318.21, -9.76, -36.11, 0.000, 0.000, 0.000, 15:44:46.924, 1587847486924
36, 44.49, -325.83, -20.00, 3.18, 0.000, 0.000, 0.000, 15:44:46.924, 1587847486924
37, 266.62, -103.55, 211.93, 84.28, 0.000, 0.000, 0.000, 15:44:46.937, 1587847486937
38, 144.18, -220.18, 101.29, -5.64, 0.000, 0.000, 0.000, 15:44:46.937, 1587847486937
39, -42.67, -396.29, -66.56, -26.43, 0.000, 0.000, 0.000, 15:44:46.952, 1587847486952
40, 230.18, -137.60, 182.27, 74.86, 0.000, 0.000, 0.000, 15:44:46.952, 1587847486952
41, 219.49, -166.82, 160.57, 27.88, 0.000, 0.000, 0.000, 15:44:46.954, 1587847486954
42, -15.99, -367.93, -63.04, -46.34, 0.000, 0.000, 0.000, 15:44:46.954, 1587847486954
43, 122.73, -225.39, 79.82, 42.75, 0.000, 0.000, 0.000, 15:44:46.970, 1587847486970
44, 250.55, -110.10, 202.39, 65.72, 0.000, 0.000, 0.000, 15:44:46.970, 1587847486970
45, 44.74, -321.98, -6.58, -37.62, 0.000, 0.000, 0.000, 15:44:46.982, 1587847486982
46, 52.67, -319.27, -7.55, 1.50, 0.000, 0.000, 0.000, 15:44:46.982, 1587847486982
47, 262.29, -109.66, 205.67, 82.36, 0.000, 0.000, 0.000, 15:44:46.983, 1587847486983
48, 130.01, -249.46, 81.34, -7.01, 0.000, 0.000, 0.000, 15:44:46.983, 1587847486983
49, -14.01, -374.84, -63.83, -25.93, 0.000, 0.000, 0.000, 15:44:46.996, 1587847486996
50, 234.62, -135.14, 186.17, 71.47, 0.000, 0.000, 0.000, 15:44:46.996, 1587847486996
51, 206.72, -163.67, 168.18, 31.91, 0.000, 0.000, 0.000, 15:44:47.012, 1587847487012
52, -19.95, -385.93, -59.08, -44.67, 0.000, 0.000, 0.000, 15:44:47.012, 1587847487012
53, 128.66, -240.01, 86.02, 45.33, 0.000, 0.000, 0.000, 15:44:47.027, 1587847487027
54, 258.27, -115.04, 219.35, 67.13, 0.000, 0.000, 0.000, 15:44:47.027, 1587847487027
55, 22.95, -331.58, -6.65, -39.69, 0.000, 0.000, 0.000, 15:44:47.028, 1587847487028
56, 49.79, -314.12, -1.37, 6.17, 0.000, 0.000, 0.000, 15:44:47.028, 1587847487028
57, 257.36, -104.90, 204.48, 78.29, 0.000, 0.000, 0.000, 15:44:47.043, 1587847487043
58, 116.97, -244.31, 71.93, -4.30, 0.000, 0.000, 0.000, 15:44:47.043, 1587847487043
59, -23.33, -368.52, -56.68, -25.06, 0.000, 0.000, 0.000, 15:44:47.044, 1587847487044
60, 212.99, -147.82, 172.81, 74.03, 0.000, 0.000, 0.000, 15:44:47.044, 1587847487044
61, 217.10, -165.36, 155.18, 33.06, 0.000, 0.000, 0.000, 15:44:47.057, 1587847487057
62, 5.73, -365.97, -48.15, -46.20, 0.000, 0.000, 0.000, 15:44:47.057, 1587847487057
63, 147.20, -224.95, 78.93, 45.38, 0.000, 0.000, 0.000, 15:44:47.072, 1587847487072
64, 248.12, -125.69, 193.90, 65.59, 0.000, 0.000, 0.000, 15:44:47.072, 1587847487072
65, 39.93, -322.41, 2.37, -35.99, 0.000, 0.000, 0.000, 15:44:47.073, 1587847487073
66, 30.68, -340.33, -26.95, -0.70, 0.000, 0.000, 0.000, 15:44:47.073, 1587847487073
67, 267.35, -111.54, 202.80, 78.96, 0.000, 0.000, 0.000, 15:44:47.087, 1587847487087
68, 138.66, -235.06, 88.86, -6.60, 0.000, 0.000, 0.000, 15:44:47.087, 1587847487087
69, 22.11, -347.63, -35.80, -34.01, 0.000, 0.000, 0.000, 15:44:47.102, 1587847487102
70, 204.41, -173.40, 145.40, 71.98, 0.000, 0.000, 0.000, 15:44:47.102, 1587847487102
71, 199.23, -171.27, 154.15, 32.38, 0.000, 0.000, 0.000, 15:44:47.103, 1587847487103
72, -4.32, -355.47, -45.18, -44.76, 0.000, 0.000, 0.000, 15:44:47.103, 1587847487103
73, 109.06, -241.59, 74.62, 47.41, 0.000, 0.000, 0.000, 15:44:47.117, 1587847487117
74, 265.33, -97.16, 219.80, 68.41, 0.000, 0.000, 0.000, 15:44:47.117, 1587847487117
75, 112.05, -277.75, 33.95, -36.35, 0.000, 0.000, 0.000, 15:44:47.133, 1587847487133
76, 50.32, -326.16, -15.84, 3.51, 0.000, 0.000, 0.000, 15:44:47.133, 1587847487133
77, 272.99, -115.54, 193.76, 84.17, 0.000, 0.000, 0.000, 15:44:47.135, 1587847487135
78, 138.74, -237.15, 74.48, -8.15, 0.000, 0.000, 0.000, 15:44:47.135, 1587847487135
79, -8.66, -383.55, -70.20, -33.78, 0.000, 0.000, 0.000, 15:44:47.147, 1587847487147
80, 208.37, -158.46, 158.12, 76.68, 0.000, 0.000, 0.000, 15:44:47.147, 1587847487147
81, 235.02, -134.42, 170.65, 33.47, 0.000, 0.000, 0.000, 15:44:47.162, 1587847487162
82, -13.28, -377.35, -65.58, -45.91, 0.000, 0.000, 0.000, 15:44:47.162, 1587847487162
83, 121.54, -240.75, 74.87, 40.86, 0.000, 0.000, 0.000, 15:44:47.177, 1587847487177
84, 276.42, -93.99, 216.41, 63.26, 0.000, 0.000, 0.000, 15:44:47.177, 1587847487177
85, 65.65, -305.44, -1.96, -41.14, 0.000, 0.000, 0.000, 15:44:47.178, 1587847487178
86, 27.10, -341.60, -29.19, -1.40, 0.000, 0.000, 0.000, 15:44:47.178, 1587847487178
87, 239.86, -119.05, 198.45, 77.89, 0.000, 0.000, 0.000, 15:44:47.192, 1587847487192
88, 154.25, -214.54, 103.07, -8.51, 0.000, 0.000, 0.000, 15:44:47.192, 1587847487192
89, -28.33, -380.48, -67.11, -31.61, 0.000, 0.000, 0.000, 15:44:47.193, 1587847487193
90, 224.51, -161.12, 150.25, 70.28, 0.000, 0.000, 0.000, 15:44:47.193, 1587847487193
91, 253.07, -138.66, 169.84, 34.81, 0.000, 0.000, 0.000, 15:44:47.206, 1587847487206
92, 29.47, -357.63, -49.05, -44.80, 0.000, 0.000, 0.000, 15:44:47.206, 1587847487206
93, 120.72, -261.05, 47.20, 39.79, 0.000, 0.000, 0.000, 15:44:47.222, 1587847487222
94, 266.45, -117.55, 199.36, 63.90, 0.000, 0.000, 0.000, 15:44:47.222, 1587847487222
95, 68.80, -303.61, 5.41, -31.88, 0.000, 0.000, 0.000, 15:44:47.222, 1587847487222
96, 34.44, -336.22, -19.79, 1.19, 0.000, 0.000, 0.000, 15:44:47.222, 1587847487222
97, 260.00, -115.76, 189.65, 79.94, 0.000, 0.000, 0.000, 15:44:47.236, 1587847487236
98, 128.51, -234.16, 84.21, -7.03, 0.000, 0.000, 0.000, 15:44:47.236, 1587847487236
99, 3.99, -361.30, -50.38, -36.59, 0.000, 0.000, 0.000, 15:44:47.252, 1587847487252
100, 196.66, -177.89, 136.26, 75.69, 0.000, 0.000, 0.000, 15:44:47.252, 1587847487252
101, 253.93, -138.41, 183.54, 35.37, 0.000, 0.000, 0.000, 15:44:47.254, 1587847487254
102, 9.88, -370.68, -61.90, -44.84, 0.000, 0.000, 0.000, 15:44:47.254, 1587847487254
103, 116.97, -258.09, 63.50, 40.27, 0.000, 0.000, 0.000, 15:44:47.266, 1587847487266
104, 263.62, -112.37, 210.95, 64.21, 0.000, 0.000, 0.000, 15:44:47.266, 1587847487266
105, 68.15, -301.79, 16.64, -37.18, 0.000, 0.000, 0.000, 15:44:47.283, 1587847487283
106, 42.69, -335.15, -14.39, -0.50, 0.000, 0.000, 0.000, 15:44:47.283, 1587847487283
107, 276.60, -111.73, 206.77, 78.55, 0.000, 0.000, 0.000, 15:44:47.283, 1587847487283
108, 163.29, -227.61, 94.37, -6.62, 0.000, 0.000, 0.000, 15:44:47.283, 1587847487283
109, 0.18, -383.10, -82.82, -34.88, 0.000, 0.000, 0.000, 15:44:47.297, 1587847487297
110, 226.75, -155.25, 156.45, 69.80, 0.000, 0.000, 0.000, 15:44:47.297, 1587847487297
111, 239.86, -146.33, 169.73, 28.60, 0.000, 0.000, 0.000, 15:44:47.329, 1587847487329
112, 7.07, -366.74, -66.33, -43.68, 0.000, 0.000, 0.000, 15:44:47.329, 1587847487329
113, 114.53, -252.49, 57.34, 40.66, 0.000, 0.000, 0.000, 15:44:47.330, 1587847487330
114, 283.16, -98.22, 214.63, 63.99, 0.000, 0.000, 0.000, 15:44:47.330, 1587847487330
115, 93.63, -288.13, 3.62, -39.58, 0.000, 0.000, 0.000, 15:44:47.331, 1587847487331
116, 85.16, -299.33, 3.53, -3.39, 0.000, 0.000, 0.000, 15:44:47.331, 1587847487331
117, 271.28, -87.99, 197.31, 81.25, 0.000, 0.000, 0.000, 15:44:47.331, 1587847487331
118, 146.84, -234.24, 53.44, -4.81, 0.000, 0.000, 0.000, 15:44:47.331, 1587847487331
119, -5.19, -396.89, -44.92, -30.60, 0.000, 0.000, 0.000, 15:44:47.342, 1587847487342
120, 232.34, -154.84, 164.00, 70.95, 0.000, 0.000, 0.000, 15:44:47.342, 1587847487342
121, 299.89, -101.56, 137.09, 24.99, 0.000, 0.000, 0.000, 15:44:47.357, 1587847487357
122, 54.37, -321.71, -86.73, -49.76, 0.000, 0.000, 0.000, 15:44:47.357, 1587847487357
123, 152.47, -241.72, 75.46, 38.71, 0.000, 0.000, 0.000, 15:44:47.372, 1587847487372
124, 348.27, 0.09, 333.04, 64.17, 0.000, 0.000, 0.000, 15:44:47.372, 1587847487372
125, 156.32, -233.61, -54.83, -38.93, 0.000, 0.000, 0.000, 15:44:47.377, 1587847487377
126, 1.09, -362.48, -28.45, -7.24, 0.000, 0.000, 0.000, 15:44:47.377, 1587847487377
127, 265.66, -91.96, 183.49, 76.62, 0.000, 0.000, 0.000, 15:44:47.386, 1587847487386
128, 175.61, -194.12, 65.85, -10.88, 0.000, 0.000, 0.000, 15:44:47.386, 1587847487386
129, -55.77, -439.23, -121.65, -42.78, 0.000, 0.000, 0.000, 15:44:47.402, 1587847487402
130, 234.66, -164.56, 121.90, 64.60, 0.000, 0.000, 0.000, 15:44:47.402, 1587847487402
131, 198.76, -166.33, 186.98, 32.22, 0.000, 0.000, 0.000, 15:44:47.404, 1587847487404
132, 104.96, -302.50, 1.01, -51.68, 0.000, 0.000, 0.000, 15:44:47.404, 1587847487404
133, 184.33, -195.59, 77.55, 38.58, 0.000, 0.000, 0.000, 15:44:47.416, 1587847487416
134, 209.24, -156.02, 96.04, 62.41, 0.000, 0.000, 0.000, 15:44:47.416, 1587847487416
135, 74.65, -299.40, -78.94, -42.14, 0.000, 0.000, 0.000, 15:44:47.433, 1587847487433
136, 83.94, -286.04, 111.31, -1.77, 0.000, 0.000, 0.000, 15:44:47.433, 1587847487433
137, 322.48, -133.63, 168.73, 72.89, 0.000, 0.000, 0.000, 15:44:47.434, 1587847487434
138, 185.30, -220.16, 88.09, -6.86, 0.000, 0.000, 0.000, 15:44:47.434, 1587847487434
139, -62.39, -422.97, -151.50, -38.47, 0.000, 0.000, 0.000, 15:44:47.447, 1587847487447
140, 270.08, -139.73, 144.27, 70.44, 0.000, 0.000, 0.000, 15:44:47.447, 1587847487447
141, 303.51, -154.91, 157.89, 29.25, 0.000, 0.000, 0.000, 15:44:47.463, 1587847487463
142, -80.08, -414.40, -84.68, -55.89, 0.000, 0.000, 0.000, 15:44:47.463, 1587847487463
143, 145.26, -248.82, 52.03, 30.91, 0.000, 0.000, 0.000, 15:44:47.464, 1587847487464
144, 268.18, -125.81, 190.73, 58.70, 0.000, 0.000, 0.000, 15:44:47.464, 1587847487464
145, 45.74, -344.15, -0.18, -45.58, 0.000, 0.000, 0.000, 15:44:47.477, 1587847487477
146, 57.77, -346.53, -32.31, -15.69, 0.000, 0.000, 0.000, 15:44:47.477, 1587847487477
147, 357.65, -58.17, 206.39, 66.05, 0.000, 0.000, 0.000, 15:44:47.492, 1587847487492
148, 120.11, -290.91, 54.18, -8.63, 0.000, 0.000, 0.000, 15:44:47.492, 1587847487492
149, 6.94, -358.20, -9.23, -45.70, 0.000, 0.000, 0.000, 15:44:47.493, 1587847487493
150, 222.72, -192.99, 129.60, 68.77, 0.000, 0.000, 0.000, 15:44:47.493, 1587847487493
151, 217.42, -145.04, 143.92, 32.46, 0.000, 0.000, 0.000, 15:44:47.507, 1587847487507
152, 39.71, -372.38, 4.41, -48.47, 0.000, 0.000, 0.000, 15:44:47.507, 1587847487507
153, 132.24, -288.26, 34.72, 37.88, 0.000, 0.000, 0.000, 15:44:47.525, 1587847487525
154, 264.07, -140.86, 206.69, 65.34, 0.000, 0.000, 0.000, 15:44:47.525, 1587847487525
155, 100.12, -293.77, -10.40, -41.53, 0.000, 0.000, 0.000, 15:44:47.525, 1587847487525
156, 18.97, -379.43, 14.33, -8.82, 0.000, 0.000, 0.000, 15:44:47.525, 1587847487525
157, 270.45, -156.86, 203.72, 73.93, 0.000, 0.000, 0.000, 15:44:47.538, 1587847487538
158, 172.18, -235.46, 110.57, -12.33, 0.000, 0.000, 0.000, 15:44:47.538, 1587847487538
159, 14.85, -398.95, -68.17, -42.03, 0.000, 0.000, 0.000, 15:44:47.552, 1587847487552
160, 178.14, -215.57, 112.36, 62.11, 0.000, 0.000, 0.000, 15:44:47.552, 1587847487552
161, 212.57, -197.19, 190.69, 28.32, 0.000, 0.000, 0.000, 15:44:47.553, 1587847487553
162, 9.21, -392.63, -26.40, -53.66, 0.000, 0.000, 0.000, 15:44:47.553, 1587847487553
163, 116.50, -282.84, 78.92, 32.55, 0.000, 0.000, 0.000, 15:44:47.582, 1587847487582
164, 269.84, -134.12, 248.09, 61.06, 0.000, 0.000, 0.000, 15:44:47.582, 1587847487582
165, 79.08, -332.75, 15.99, -37.23, 0.000, 0.000, 0.000, 15:44:47.583, 1587847487583
166, 54.34, -351.94, 5.84, -9.14, 0.000, 0.000, 0.000, 15:44:47.583, 1587847487583
167, 245.57, -165.10, 199.85, 76.75, 0.000, 0.000, 0.000, 15:44:47.584, 1587847487584
168, 154.64, -238.75, 150.01, -7.90, 0.000, 0.000, 0.000, 15:44:47.584, 1587847487584
169, 11.78, -386.33, -22.28, -33.19, 0.000, 0.000, 0.000, 15:44:47.596, 1587847487596
170, 224.41, -201.69, 157.99, 66.02, 0.000, 0.000, 0.000, 15:44:47.596, 1587847487596
171, 235.18, -183.99, 202.42, 36.13, 0.000, 0.000, 0.000, 15:44:47.612, 1587847487612
172, 13.36, -386.69, -10.12, -51.31, 0.000, 0.000, 0.000, 15:44:47.612, 1587847487612
173, 107.95, -281.26, 94.02, 30.82, 0.000, 0.000, 0.000, 15:44:47.613, 1587847487613
174, 270.77, -142.97, 252.07, 60.62, 0.000, 0.000, 0.000, 15:44:47.613, 1587847487613
175, 69.44, -335.27, 42.46, -39.76, 0.000, 0.000, 0.000, 15:44:47.627, 1587847487627
176, 61.35, -343.06, 36.12, -6.75, 0.000, 0.000, 0.000, 15:44:47.627, 1587847487627
177, 262.77, -151.14, 245.33, 72.39, 0.000, 0.000, 0.000, 15:44:47.643, 1587847487643
178, 149.60, -256.03, 128.71, -2.73, 0.000, 0.000, 0.000, 15:44:47.643, 1587847487643
179, -21.29, -399.80, -10.22, -39.67, 0.000, 0.000, 0.000, 15:44:47.646, 1587847487646
180, 213.27, -202.41, 173.99, 61.75, 0.000, 0.000, 0.000, 15:44:47.646, 1587847487646
181, 241.43, -173.00, 196.32, 36.37, 0.000, 0.000, 0.000, 15:44:47.657, 1587847487657
182, -2.08, -383.18, 9.96, -51.84, 0.000, 0.000, 0.000, 15:44:47.657, 1587847487657
183, 112.42, -286.27, 89.36, 31.43, 0.000, 0.000, 0.000, 15:44:47.672, 1587847487672
184, 274.26, -131.08, 254.71, 66.85, 0.000, 0.000, 0.000, 15:44:47.672, 1587847487672
185, 71.90, -332.52, 54.39, -36.59, 0.000, 0.000, 0.000, 15:44:47.676, 1587847487676
186, 50.43, -356.79, 16.17, -7.60, 0.000, 0.000, 0.000, 15:44:47.676, 1587847487676
187, 253.92, -149.86, 235.47, 74.95, 0.000, 0.000, 0.000, 15:44:47.686, 1587847487686
188, 187.49, -226.00, 153.03, -5.05, 0.000, 0.000, 0.000, 15:44:47.686, 1587847487686
189, -12.75, -402.61, -12.60, -42.62, 0.000, 0.000, 0.000, 15:44:47.702, 1587847487702
190, 205.45, -193.39, 185.56, 63.10, 0.000, 0.000, 0.000, 15:44:47.702, 1587847487702
191, 241.51, -165.10, 196.37, 32.59, 0.000, 0.000, 0.000, 15:44:47.704, 1587847487704
192, 5.40, -396.58, -23.03, -52.63, 0.000, 0.000, 0.000, 15:44:47.704, 1587847487704
193, 101.96, -302.44, 101.55, 24.72, 0.000, 0.000, 0.000, 15:44:47.717, 1587847487717
194, 277.59, -118.03, 256.42, 61.61, 0.000, 0.000, 0.000, 15:44:47.717, 1587847487717
195, 78.67, -323.53, 48.21, -39.07, 0.000, 0.000, 0.000, 15:44:47.732, 1587847487732
196, 28.31, -370.49, 11.14, -11.75, 0.000, 0.000, 0.000, 15:44:47.732, 1587847487732
197, 263.80, -137.13, 237.68, 77.86, 0.000, 0.000, 0.000, 15:44:47.733, 1587847487733
198, 161.34, -232.00, 141.78, 0.03, 0.000, 0.000, 0.000, 15:44:47.733, 1587847487733
199, -18.73, -400.80, -25.83, -38.13, 0.000, 0.000, 0.000, 15:44:47.747, 1587847487747
200, 197.22, -195.03, 178.67, 64.44, 0.000, 0.000, 0.000, 15:44:47.747, 1587847487747
0, 250.90, -151.05, 207.12, 36.25, 0.000, 0.000, 0.000, 15:44:47.748, 1587847487748
1, 22.49, -370.57, 11.90, -48.21, 0.000, 0.000, 0.000, 15:44:47.761, 1587847487761
2, 106.71, -286.88, 84.77, 30.95, 0.000, 0.000, 0.000, 15:44:47.761, 1587847487761
3, 286.13, -112.81, 256.31, 68.47, 0.000, 0.000, 0.000, 15:44:47.777, 1587847487777
4, 86.79, -310.81, 50.83, -37.13, 0.000, 0.000, 0.000, 15:44:47.777, 1587847487777
5, 46.14, -353.86, 23.76, -13.50, 0.000, 0.000, 0.000, 15:44:47.777, 1587847487777
6, 267.78, -134.04, 242.65, 78.27, 0.000, 0.000, 0.000, 15:44:47.777, 1587847487777
7, 166.13, -226.72, 143.05, -0.62, 0.000, 0.000, 0.000, 15:44:47.792, 1587847487792
8, 6.79, -386.69, -19.83, -39.57, 0.000, 0.000, 0.000, 15:44:47.792, 1587847487792
9, 201.55, -194.81, 177.01, 63.57, 0.000, 0.000, 0.000, 15:44:47.808, 1587847487808
10, 225.73, -162.46, 207.94, 37.03, 0.000, 0.000, 0.000, 15:44:47.808, 1587847487808
11, 17.77, -363.40, -11.21, -47.63, 0.000, 0.000, 0.000, 15:44:47.808, 1587847487808
12, 99.52, -293.04, 74.72, 27.99, 0.000, 0.000, 0.000, 15:44:47.808, 1587847487808
13, 265.61, -124.91, 240.55, 66.64, 0.000, 0.000, 0.000, 15:44:47.822, 1587847487822
14, 88.48, -306.66, 56.99, -35.59, 0.000, 0.000, 0.000, 15:44:47.822, 1587847487822
15, 39.38, -354.64, 8.66, -7.67, 0.000, 0.000, 0.000, 15:44:47.837, 1587847487837
16, 248.65, -136.59, 215.95, 75.92, 0.000, 0.000, 0.000, 15:44:47.837, 1587847487837
17, 183.37, -205.15, 160.48, -2.51, 0.000, 0.000, 0.000, 15:44:47.838, 1587847487838
18, -14.01, -396.80, -39.84, -39.73, 0.000, 0.000, 0.000, 15:44:47.838, 1587847487838
19, 202.49, -199.64, 165.34, 64.79, 0.000, 0.000, 0.000, 15:44:47.851, 1587847487851
20, 240.84, -148.25, 212.24, 39.35, 0.000, 0.000, 0.000, 15:44:47.851, 1587847487851
21, 20.25, -370.37, -7.14, -51.30, 0.000, 0.000, 0.000, 15:44:47.867, 1587847487867
22, 108.28, -278.02, 87.98, 33.88, 0.000, 0.000, 0.000, 15:44:47.867, 1587847487867
23, 279.02, -111.26, 250.09, 67.48, 0.000, 0.000, 0.000, 15:44:47.883, 1587847487883
24, 92.25, -300.39, 49.09, -35.67, 0.000, 0.000, 0.000, 15:44:47.883, 1587847487883
25, 22.03, -365.31, -8.72, -9.65, 0.000, 0.000, 0.000, 15:44:47.884, 1587847487884
26, 263.27, -130.68, 240.89, 74.45, 0.000, 0.000, 0.000, 15:44:47.884, 1587847487884
27, 185.37, -208.55, 148.17, -1.91, 0.000, 0.000, 0.000, 15:44:47.897, 1587847487897
28, -1.57, -391.89, -31.28, -43.00, 0.000, 0.000, 0.000, 15:44:47.897, 1587847487897
29, 182.79, -203.36, 167.97, 70.48, 0.000, 0.000, 0.000, 15:44:47.898, 1587847487898
30, 246.73, -147.70, 210.86, 43.75, 0.000, 0.000, 0.000, 15:44:47.898, 1587847487898
31, 10.17, -367.33, -2.64, -46.17, 0.000, 0.000, 0.000, 15:44:47.912, 1587847487912
32, 106.87, -277.45, 85.15, 30.51, 0.000, 0.000, 0.000, 15:44:47.912, 1587847487912
33, 272.45, -112.75, 254.67, 68.60, 0.000, 0.000, 0.000, 15:44:47.927, 1587847487927
34, 75.70, -308.01, 51.67, -34.57, 0.000, 0.000, 0.000, 15:44:47.927, 1587847487927
35, 47.43, -342.28, 10.15, -16.41, 0.000, 0.000, 0.000, 15:44:47.928, 1587847487928
36, 256.84, -139.04, 230.95, 75.12, 0.000, 0.000, 0.000, 15:44:47.928, 1587847487928
37, 158.52, -230.28, 141.04, 5.95, 0.000, 0.000, 0.000, 15:44:47.943, 1587847487943
38, 5.89, -385.38, -27.14, -33.63, 0.000, 0.000, 0.000, 15:44:47.943, 1587847487943
39, 204.14, -190.82, 179.31, 68.72, 0.000, 0.000, 0.000, 15:44:47.957, 1587847487957
40, 231.47, -156.39, 211.83, 40.74, 0.000, 0.000, 0.000, 15:44:47.957, 1587847487957
41, 18.33, -366.14, -20.21, -49.32, 0.000, 0.000, 0.000, 15:44:47.958, 1587847487958
42, 99.37, -283.30, 73.32, 30.91, 0.000, 0.000, 0.000, 15:44:47.958, 1587847487958
43, 276.50, -110.25, 248.59, 66.23, 0.000, 0.000, 0.000, 15:44:47.988, 1587847487988
44, 94.59, -288.03, 61.34, -31.82, 0.000, 0.000, 0.000, 15:44:47.988, 1587847487988
45, 31.19, -352.80, -9.67, -11.56, 0.000, 0.000, 0.000, 15:44:47.989, 1587847487989
46, 265.11, -131.26, 214.21, 81.98, 0.000, 0.000, 0.000, 15:44:47.989, 1587847487989
47, 176.65, -205.57, 149.02, 4.23, 0.000, 0.000, 0.000, 15:44:47.990, 1587847487990
48, 1.89, -379.77, -26.59, -37.86, 0.000, 0.000, 0.000, 15:44:47.990, 1587847487990
49, 187.13, -196.69, 155.59, 63.23, 0.000, 0.000, 0.000, 15:44:48.002, 1587847488002
50, 254.84, -137.34, 208.52, 42.80, 0.000, 0.000, 0.000, 15:44:48.002, 1587847488002
51, 26.50, -363.72, -18.54, -46.05, 0.000, 0.000, 0.000, 15:44:48.017, 1587847488017
52, 106.70, -280.73, 69.40, 33.81, 0.000, 0.000, 0.000, 15:44:48.017, 1587847488017
53, 277.79, -110.49, 235.72, 74.79, 0.000, 0.000, 0.000, 15:44:48.018, 1587847488018
54, 92.98, -293.05, 51.93, -31.81, 0.000, 0.000, 0.000, 15:44:48.018, 1587847488018
55, 25.27, -357.76, -9.39, -14.16, 0.000, 0.000, 0.000, 15:44:48.032, 1587847488032
56, 253.44, -137.30, 211.43, 75.82, 0.000, 0.000, 0.000, 15:44:48.032, 1587847488032
57, 181.70, -209.73, 146.77, 2.51, 0.000, 0.000, 0.000, 15:44:48.047, 1587847488047
58, 7.12, -377.92, -43.12, -38.75, 0.000, 0.000, 0.000, 15:44:48.047, 1587847488047
59, 195.78, -196.72, 158.38, 66.31, 0.000, 0.000, 0.000, 15:44:48.048, 1587847488048
60, 256.42, -137.99, 209.78, 41.98, 0.000, 0.000, 0.000, 15:44:48.048, 1587847488048
61, 18.75, -359.91, -9.26, -44.15, 0.000, 0.000, 0.000, 15:44:48.061, 1587847488061
62, 112.21, -272.26, 66.89, 31.90, 0.000, 0.000, 0.000, 15:44:48.061, 1587847488061
63, 280.40, -115.32, 230.92, 70.75, 0.000, 0.000, 0.000, 15:44:48.077, 1587847488077
64, 98.72, -287.09, 50.46, -31.36, 0.000, 0.000, 0.000, 15:44:48.077, 1587847488077
65, 21.73, -359.69, -4.24, -11.94, 0.000, 0.000, 0.000, 15:44:48.078, 1587847488078
66, 251.27, -135.66, 221.50, 81.29, 0.000, 0.000, 0.000, 15:44:48.078, 1587847488078
67, 176.82, -207.14, 136.72, 3.70, 0.000, 0.000, 0.000, 15:44:48.091, 1587847488091
68, 6.14, -378.63, -43.61, -39.38, 0.000, 0.000, 0.000, 15:44:48.091, 1587847488091
69, 191.89, -189.13, 147.29, 62.42, 0.000, 0.000, 0.000, 15:44:48.107, 1587847488107
70, 254.65, -141.76, 192.72, 51.87, 0.000, 0.000, 0.000, 15:44:48.107, 1587847488107
71, 21.49, -362.42, -21.84, -42.10, 0.000, 0.000, 0.000, 15:44:48.108, 1587847488108
72, 109.83, -281.48, 60.33, 28.20, 0.000, 0.000, 0.000, 15:44:48.108, 1587847488108
73, 286.11, -102.78, 230.24, 69.85, 0.000, 0.000, 0.000, 15:44:48.121, 1587847488121
74, 103.65, -292.11, 53.00, -27.96, 0.000, 0.000, 0.000, 15:44:48.121, 1587847488121
75, 24.27, -359.68, -26.15, -5.81, 0.000, 0.000, 0.000, 15:44:48.138, 1587847488138
76, 259.38, -131.89, 214.33, 79.53, 0.000, 0.000, 0.000, 15:44:48.138, 1587847488138
77, 186.39, -204.06, 128.56, 4.67, 0.000, 0.000, 0.000, 15:44:48.139, 1587847488139
78, 12.65, -377.16, -31.91, -34.90, 0.000, 0.000, 0.000, 15:44:48.139, 1587847488139
79, 190.56, -199.19, 138.79, 64.78, 0.000, 0.000, 0.000, 15:44:48.152, 1587847488152
80, 251.64, -139.19, 200.53, 40.37, 0.000, 0.000, 0.000, 15:44:48.152, 1587847488152
81, 9.54, -362.52, -24.55, -47.83, 0.000, 0.000, 0.000, 15:44:48.167, 1587847488167
82, 94.94, -282.76, 55.67, 26.18, 0.000, 0.000, 0.000, 15:44:48.167, 1587847488167
83, 288.30, -100.38, 233.86, 67.64, 0.000, 0.000, 0.000, 15:44:48.168, 1587847488168
84, 103.42, -289.89, 42.25, -26.45, 0.000, 0.000, 0.000, 15:44:48.168, 1587847488168
85, 25.59, -364.17, -42.78, -11.76, 0.000, 0.000, 0.000, 15:44:48.181, 1587847488181
86, 257.18, -131.31, 206.77, 80.99, 0.000, 0.000, 0.000, 15:44:48.181, 1587847488181
87, 186.89, -208.28, 129.78, 11.30, 0.000, 0.000, 0.000, 15:44:48.197, 1587847488197
88, 8.44, -379.07, -42.60, -41.74, 0.000, 0.000, 0.000, 15:44:48.197, 1587847488197
89, 183.50, -198.25, 151.47, 61.21, 0.000, 0.000, 0.000, 15:44:48.197, 1587847488197
90, 243.73, -139.44, 207.50, 37.01, 0.000, 0.000, 0.000, 15:44:48.197, 1587847488197
91, 19.28, -364.13, -28.19, -45.19, 0.000, 0.000, 0.000, 15:44:48.212, 1587847488212
92, 114.42, -271.79, 69.96, 26.61, 0.000, 0.000, 0.000, 15:44:48.212, 1587847488212
93, 284.48, -108.60, 241.23, 76.35, 0.000, 0.000, 0.000, 15:44:48.227, 1587847488227
94, 93.06, -290.38, 44.99, -25.73, 0.000, 0.000, 0.000, 15:44:48.227, 1587847488227
95, 22.06, -355.20, -23.20, -10.23, 0.000, 0.000, 0.000, 15:44:48.228, 1587847488228
96, 252.42, -131.98, 203.93, 75.17, 0.000, 0.000, 0.000, 15:44:48.228, 1587847488228
97, 179.44, -202.87, 122.07, 4.80, 0.000, 0.000, 0.000, 15:44:48.241, 1587847488241
98, -0.57, -376.76, -50.81, -45.07, 0.000, 0.000, 0.000, 15:44:48.241, 1587847488241
99, 186.97, -195.87, 144.91, 60.51, 0.000, 0.000, 0.000, 15:44:48.257, 1587847488257
100, 225.41, -142.51, 211.06, 42.81, 0.000, 0.000, 0.000, 15:44:48.257, 1587847488257
101, 18.19, -361.89, -26.97, -49.79, 0.000, 0.000, 0.000, 15:44:48.257, 1587847488257
102, 110.46, -277.74, 55.87, 25.36, 0.000, 0.000, 0.000, 15:44:48.257, 1587847488257
103, 280.95, -111.16, 220.19, 72.35, 0.000, 0.000, 0.000, 15:44:48.287, 1587847488287
104, 94.66, -291.73, 50.14, -31.42, 0.000, 0.000, 0.000, 15:44:48.287, 1587847488287
105, 21.37, -358.55, -22.33, -14.58, 0.000, 0.000, 0.000, 15:44:48.288, 1587847488288
106, 254.19, -132.97, 208.95, 76.03, 0.000, 0.000, 0.000, 15:44:48.288, 1587847488288
107, 182.48, -205.54, 134.79, 6.64, 0.000, 0.000, 0.000, 15:44:48.289, 1587847488289
108, 2.16, -381.44, -46.67, -44.70, 0.000, 0.000, 0.000, 15:44:48.289, 1587847488289
109, 183.24, -207.14, 122.52, 60.13, 0.000, 0.000, 0.000, 15:44:48.301, 1587847488301
110, 250.84, -136.61, 200.75, 41.25, 0.000, 0.000, 0.000, 15:44:48.301, 1587847488301
111, 21.77, -373.62, -23.51, -47.41, 0.000, 0.000, 0.000, 15:44:48.317, 1587847488317
112, 102.74, -288.28, 53.81, 24.64, 0.000, 0.000, 0.000, 15:44:48.317, 1587847488317
113, 280.54, -109.71, 223.03, 75.71, 0.000, 0.000, 0.000, 15:44:48.319, 1587847488319
114, 77.98, -293.28, 40.65, -28.24, 0.000, 0.000, 0.000, 15:44:48.319, 1587847488319
115, 24.38, -348.48, -25.59, -19.54, 0.000, 0.000, 0.000, 15:44:48.331, 1587847488331
116, 250.69, -137.40, 201.11, 87.67, 0.000, 0.000, 0.000, 15:44:48.331, 1587847488331
117, 189.89, -201.89, 127.72, 8.39, 0.000, 0.000, 0.000, 15:44:48.347, 1587847488347
118, -0.45, -394.58, -62.71, -46.81, 0.000, 0.000, 0.000, 15:44:48.347, 1587847488347
119, 189.11, -201.30, 129.74, 60.14, 0.000, 0.000, 0.000, 15:44:48.348, 1587847488348
120, 250.14, -144.16, 192.40, 44.50, 0.000, 0.000, 0.000, 15:44:48.348, 1587847488348
121, 35.24, -350.58, -22.71, -49.00, 0.000, 0.000, 0.000, 15:44:48.361, 1587847488361
122, 99.49, -290.84, 44.99, 24.64, 0.000, 0.000, 0.000, 15:44:48.361, 1587847488361
123, 269.47, -117.73, 231.62, 77.66, 0.000, 0.000, 0.000, 15:44:48.378, 1587847488378
124, 101.82, -279.68, 61.99, -29.82, 0.000, 0.000, 0.000, 15:44:48.378, 1587847488378
125, 17.11, -365.59, -19.60, -15.48, 0.000, 0.000, 0.000, 15:44:48.379, 1587847488379
126, 245.04, -141.77, 192.92, 75.69, 0.000, 0.000, 0.000, 15:44:48.379, 1587847488379
127, 189.76, -218.02, 126.88, 7.06, 0.000, 0.000, 0.000, 15:44:48.391, 1587847488391
128, 2.60, -373.59, -37.69, -46.80, 0.000, 0.000, 0.000, 15:44:48.391, 1587847488391
129, 174.66, -205.07, 130.88, 65.47, 0.000, 0.000, 0.000, 15:44:48.407, 1587847488407
130, 257.13, -127.20, 205.92, 47.65, 0.000, 0.000, 0.000, 15:44:48.407, 1587847488407
131, 44.67, -342.74, -16.79, -49.26, 0.000, 0.000, 0.000, 15:44:48.408, 1587847488408
132, 95.00, -293.80, 37.58, 22.53, 0.000, 0.000, 0.000, 15:44:48.408, 1587847488408
133, 286.55, -100.94, 225.17, 71.89, 0.000, 0.000, 0.000, 15:44:48.421, 1587847488421
134, 96.85, -285.78, 47.76, -29.63, 0.000, 0.000, 0.000, 15:44:48.421, 1587847488421
135, 26.35, -359.79, -28.02, -13.40, 0.000, 0.000, 0.000, 15:44:48.438, 1587847488438
136, 254.38, -135.67, 197.20, 80.42, 0.000, 0.000, 0.000, 15:44:48.438, 1587847488438
137, 182.30, -198.89, 127.95, 8.12, 0.000, 0.000, 0.000, 15:44:48.439, 1587847488439
138, -2.20, -382.52, -43.18, -41.19, 0.000, 0.000, 0.000, 15:44:48.439, 1587847488439
139, 184.59, -202.66, 135.02, 62.90, 0.000, 0.000, 0.000, 15:44:48.451, 1587847488451
140, 256.78, -134.07, 205.89, 48.82, 0.000, 0.000, 0.000, 15:44:48.451, 1587847488451
141, 36.56, -355.07, -18.26, -47.94, 0.000, 0.000, 0.000, 15:44:48.467, 1587847488467
142, 101.52, -285.83, 42.86, 24.36, 0.000, 0.000, 0.000, 15:44:48.467, 1587847488467
143, 279.68, -112.78, 221.78, 78.44, 0.000, 0.000, 0.000, 15:44:48.468, 1587847488468
144, 121.29, -280.03, 51.15, -27.58, 0.000, 0.000, 0.000, 15:44:48.468, 1587847488468
145, 28.40, -362.07, -22.66, -10.63, 0.000, 0.000, 0.000, 15:44:48.482, 1587847488482
146, 250.30, -145.79, 195.82, 76.60, 0.000, 0.000, 0.000, 15:44:48.482, 1587847488482
147, 185.47, -205.03, 139.38, 10.54, 0.000, 0.000, 0.000, 15:44:48.497, 1587847488497
148, 2.58, -383.19, -53.76, -42.36, 0.000, 0.000, 0.000, 15:44:48.497, 1587847488497
149, 179.00, -208.12, 124.89, 64.88, 0.000, 0.000, 0.000, 15:44:48.498, 1587847488498
150, 254.75, -149.01, 194.33, 45.21, 0.000, 0.000, 0.000, 15:44:48.498, 1587847488498
151, 40.61, -348.05, -22.00, -45.55, 0.000, 0.000, 0.000, 15:44:48.511, 1587847488511
152, 84.19, -299.26, 45.25, 25.85, 0.000, 0.000, 0.000, 15:44:48.511, 1587847488511
153, 270.39, -117.99, 226.38, 74.36, 0.000, 0.000, 0.000, 15:44:48.527, 1587847488527
154, 113.01, -280.66, 48.82, -23.65, 0.000, 0.000, 0.000, 15:44:48.527, 1587847488527
155, 14.30, -366.41, -34.02, -11.86, 0.000, 0.000, 0.000, 15:44:48.528, 1587847488528
156, 238.53, -138.08, 197.91, 77.51, 0.000, 0.000, 0.000, 15:44:48.528, 1587847488528
157, 182.88, -196.83, 134.97, 14.58, 0.000, 0.000, 0.000, 15:44:48.541, 1587847488541
158, 7.55, -374.94, -43.52, -39.39, 0.000, 0.000, 0.000, 15:44:48.541, 1587847488541
159, 185.22, -207.12, 132.29, 60.77, 0.000, 0.000, 0.000, 15:44:48.557, 1587847488557
160, 251.60, -140.44, 199.15, 47.95, 0.000, 0.000, 0.000, 15:44:48.557, 1587847488557
161, 38.30, -350.94, -10.70, -48.67, 0.000, 0.000, 0.000, 15:44:48.558, 1587847488558
162, 89.61, -291.81, 43.38, 18.28, 0.000, 0.000, 0.000, 15:44:48.558, 1587847488558
163, 271.65, -117.33, 222.63, 75.68, 0.000, 0.000, 0.000, 15:44:48.572, 1587847488572
164, 105.40, -281.12, 50.57, -22.93, 0.000, 0.000, 0.000, 15:44:48.572, 1587847488572
165, 14.08, -360.60, -32.71, -11.62, 0.000, 0.000, 0.000, 15:44:48.587, 1587847488587
166, 251.42, -125.47, 211.12, 77.76, 0.000, 0.000, 0.000, 15:44:48.587, 1587847488587
167, 183.47, -197.68, 135.87, 12.04, 0.000, 0.000, 0.000, 15:44:48.588, 1587847488588
168, 0.61, -372.38, -34.06, -41.83, 0.000, 0.000, 0.000, 15:44:48.588, 1587847488588
169, 181.84, -204.14, 128.08, 59.34, 0.000, 0.000, 0.000, 15:44:48.603, 1587847488603
170, 255.04, -124.27, 203.48, 49.53, 0.000, 0.000, 0.000, 15:44:48.603, 1587847488603
171, 26.62, -353.40, -18.85, -42.71, 0.000, 0.000, 0.000, 15:44:48.617, 1587847488617
172, 96.53, -289.32, 44.07, 19.62, 0.000, 0.000, 0.000, 15:44:48.617, 1587847488617
173, 276.17, -103.87, 224.24, 73.62, 0.000, 0.000, 0.000, 15:44:48.618, 1587847488618
174, 102.72, -274.52, 53.36, -25.80, 0.000, 0.000, 0.000, 15:44:48.618, 1587847488618
175, 23.44, -355.77, -22.18, -14.30, 0.000, 0.000, 0.000, 15:44:48.631, 1587847488631
176, 241.08, -135.59, 196.85, 80.30, 0.000, 0.000, 0.000, 15:44:48.631, 1587847488631
177, 192.97, -191.79, 147.04, 13.34, 0.000, 0.000, 0.000, 15:44:48.648, 1587847488648
178, 1.19, -382.92, -50.92, -42.72, 0.000, 0.000, 0.000, 15:44:48.648, 1587847488648
179, 171.35, -207.06, 128.21, 58.16, 0.000, 0.000, 0.000, 15:44:48.648, 1587847488648
180, 256.78, -129.07, 199.38, 48.51, 0.000, 0.000, 0.000, 15:44:48.648, 1587847488648
181, 39.08, -350.32, -23.95, -44.93, 0.000, 0.000, 0.000, 15:44:48.662, 1587847488662
182, 89.97, -290.65, 45.58, 20.66, 0.000, 0.000, 0.000, 15:44:48.662, 1587847488662
183, 281.12, -111.20, 227.19, 74.28, 0.000, 0.000, 0.000, 15:44:48.694, 1587847488694
184, 103.15, -283.14, 50.05, -26.81, 0.000, 0.000, 0.000, 15:44:48.694, 1587847488694
185, 8.96, -362.43, -32.71, -19.27, 0.000, 0.000, 0.000, 15:44:48.694, 1587847488694
186, 238.85, -134.44, 201.31, 74.64, 0.000, 0.000, 0.000, 15:44:48.694, 1587847488694
187, 184.10, -188.62, 153.41, 14.73, 0.000, 0.000, 0.000, 15:44:48.695, 1587847488695
188, -1.20, -382.30, -52.73, -40.72, 0.000, 0.000, 0.000, 15:44:48.695, 1587847488695
189, 165.64, -216.32, 127.53, 53.78, 0.000, 0.000, 0.000, 15:44:48.696, 1587847488696
190, 257.84, -132.81, 207.13, 48.97, 0.000, 0.000, 0.000, 15:44:48.696, 1587847488696
191, 35.82, -336.49, -14.59, -47.29, 0.000, 0.000, 0.000, 15:44:48.707, 1587847488707
192, 75.76, -296.39, 37.81, 19.37, 0.000, 0.000, 0.000, 15:44:48.707, 1587847488707
193, 275.62, -109.51, 224.04, 73.08, 0.000, 0.000, 0.000, 15:44:48.722, 1587847488722
194, 103.33, -283.86, 52.38, -26.34, 0.000, 0.000, 0.000, 15:44:48.722, 1587847488722
195, 10.58, -365.49, -32.05, -22.59, 0.000, 0.000, 0.000, 15:44:48.738, 1587847488738
196, 231.40, -145.80, 191.49, 74.82, 0.000, 0.000, 0.000, 15:44:48.738, 1587847488738
197, 177.55, -195.73, 145.65, 11.67, 0.000, 0.000, 0.000, 15:44:48.738, 1587847488738
198, -2.40, -387.26, -51.10, -47.82, 0.000, 0.000, 0.000, 15:44:48.738, 1587847488738
199, 167.04, -218.77, 129.17, 56.84, 0.000, 0.000, 0.000, 15:44:48.753, 1587847488753
200, 263.05, -133.88, 208.45, 47.55, 0.000, 0.000, 0.000, 15:44:48.753, 1587847488753
0, 32.50, -347.11, -13.83, -50.10, 0.000, 0.000, 0.000, 15:44:48.754, 1587847488754
1, 84.04, -293.10, 47.55, 21.04, 0.000, 0.000, 0.000, 15:44:48.767, 1587847488767
2, 263.51, -106.90, 230.09, 70.04, 0.000, 0.000, 0.000, 15:44:48.767, 1587847488767
3, 97.43, -275.85, 54.55, -24.44, 0.000, 0.000, 0.000, 15:44:48.782, 1587847488782
4, 12.95, -371.02, -35.93, -23.85, 0.000, 0.000, 0.000, 15:44:48.782, 1587847488782
5, 240.52, -142.81, 193.88, 77.00, 0.000, 0.000, 0.000, 15:44:48.783, 1587847488783
6, 189.55, -195.85, 146.87, 12.47, 0.000, 0.000, 0.000, 15:44:48.783, 1587847488783
7, -2.13, -385.22, -52.57, -43.35, 0.000, 0.000, 0.000, 15:44:48.797, 1587847488797
8, 167.04, -216.28, 114.12, 58.16, 0.000, 0.000, 0.000, 15:44:48.797, 1587847488797
9, 248.56, -133.81, 203.67, 47.31, 0.000, 0.000, 0.000, 15:44:48.814, 1587847488814
10, 35.96, -343.01, -5.89, -44.88, 0.000, 0.000, 0.000, 15:44:48.814, 1587847488814
11, 84.61, -302.73, 38.43, 19.79, 0.000, 0.000, 0.000, 15:44:48.817, 1587847488817
12, 265.61, -123.53, 221.98, 75.94, 0.000, 0.000, 0.000, 15:44:48.817, 1587847488817
13, 108.09, -277.57, 56.63, -21.24, 0.000, 0.000, 0.000, 15:44:48.826, 1587847488826
14, 15.97, -367.98, -30.46, -21.62, 0.000, 0.000, 0.000, 15:44:48.826, 1587847488826
15, 236.06, -147.75, 190.71, 75.89, 0.000, 0.000, 0.000, 15:44:48.842, 1587847488842
16, 195.07, -191.69, 145.72, 17.13, 0.000, 0.000, 0.000, 15:44:48.842, 1587847488842
17, -1.30, -372.47, -42.37, -43.65, 0.000, 0.000, 0.000, 15:44:48.843, 1587847488843
18, 164.26, -223.66, 117.76, 58.91, 0.000, 0.000, 0.000, 15:44:48.843, 1587847488843
19, 258.23, -133.36, 210.92, 52.39, 0.000, 0.000, 0.000, 15:44:48.857, 1587847488857
20, 32.18, -347.77, -6.43, -41.49, 0.000, 0.000, 0.000, 15:44:48.857, 1587847488857
21, 72.43, -308.87, 31.35, 21.55, 0.000, 0.000, 0.000, 15:44:48.873, 1587847488873
22, 270.10, -118.26, 230.24, 75.86, 0.000, 0.000, 0.000, 15:44:48.873, 1587847488873
23, 111.75, -272.29, 77.99, -23.74, 0.000, 0.000, 0.000, 15:44:48.874, 1587847488874
24, 7.03, -367.77, -38.75, -21.14, 0.000, 0.000, 0.000, 15:44:48.874, 1587847488874
25, 240.04, -142.82, 194.90, 72.18, 0.000, 0.000, 0.000, 15:44:48.887, 1587847488887
26, 191.57, -194.99, 139.06, 15.52, 0.000, 0.000, 0.000, 15:44:48.887, 1587847488887
27, -12.93, -391.09, -44.29, -43.67, 0.000, 0.000, 0.000, 15:44:48.902, 1587847488902
28, 152.31, -221.38, 133.95, 56.19, 0.000, 0.000, 0.000, 15:44:48.902, 1587847488902
29, 253.92, -119.02, 226.36, 50.32, 0.000, 0.000, 0.000, 15:44:48.903, 1587847488903
30, 25.37, -350.79, -7.10, -43.22, 0.000, 0.000, 0.000, 15:44:48.903, 1587847488903
31, 59.76, -306.05, 44.47, 16.88, 0.000, 0.000, 0.000, 15:44:48.916, 1587847488916
32, 269.32, -107.49, 241.98, 76.25, 0.000, 0.000, 0.000, 15:44:48.916, 1587847488916
33, 108.00, -268.52, 79.27, -21.82, 0.000, 0.000, 0.000, 15:44:48.932, 1587847488932
34, 1.40, -367.42, -26.72, -18.26, 0.000, 0.000, 0.000, 15:44:48.932, 1587847488932
35, 228.52, -145.37, 197.04, 72.39, 0.000, 0.000, 0.000, 15:44:48.933, 1587847488933
36, 176.14, -191.57, 152.66, 8.41, 0.000, 0.000, 0.000, 15:44:48.933, 1587847488933
37, -18.36, -379.05, -35.42, -42.65, 0.000, 0.000, 0.000, 15:44:48.949, 1587847488949
38, 161.84, -209.23, 137.13, 59.77, 0.000, 0.000, 0.000, 15:44:48.949, 1587847488949
39, 241.18, -131.72, 212.22, 50.84, 0.000, 0.000, 0.000, 15:44:48.963, 1587847488963
40, 25.36, -341.66, 3.44, -42.79, 0.000, 0.000, 0.000, 15:44:48.963, 1587847488963
41, 70.91, -302.84, 50.47, 13.29, 0.000, 0.000, 0.000, 15:44:48.965, 1587847488965
42, 262.58, -112.48, 237.00, 74.52, 0.000, 0.000, 0.000, 15:44:48.965, 1587847488965
43, 85.36, -274.96, 59.57, -25.37, 0.000, 0.000, 0.000, 15:44:48.994, 1587847488994
44, 7.81, -360.16, -18.87, -27.12, 0.000, 0.000, 0.000, 15:44:48.994, 1587847488994
45, 223.89, -147.11, 201.17, 75.66, 0.000, 0.000, 0.000, 15:44:48.995, 1587847488995
46, 192.25, -177.51, 160.83, 16.57, 0.000, 0.000, 0.000, 15:44:48.995, 1587847488995
47, -7.37, -379.52, -38.46, -42.70, 0.000, 0.000, 0.000, 15:44:48.995, 1587847488995
48, 152.71, -223.06, 122.87, 55.23, 0.000, 0.000, 0.000, 15:44:48.995, 1587847488995
49, 251.37, -124.41, 219.26, 51.89, 0.000, 0.000, 0.000, 15:44:49.006, 1587847489006
50, 21.87, -344.85, -3.59, -39.50, 0.000, 0.000, 0.000, 15:44:49.006, 1587847489006
51, 68.51, -303.49, 34.44, 19.81, 0.000, 0.000, 0.000, 15:44:49.022, 1587847489022
52, 259.72, -111.82, 238.08, 71.74, 0.000, 0.000, 0.000, 15:44:49.022, 1587847489022
53, 113.47, -266.24, 73.62, -25.04, 0.000, 0.000, 0.000, 15:44:49.022, 1587847489022
54, 11.90, -360.08, -22.84, -25.58, 0.000, 0.000, 0.000, 15:44:49.022, 1587847489022
55, 225.13, -152.15, 186.94, 75.39, 0.000, 0.000, 0.000, 15:44:49.040, 1587847489040
56, 195.91, -180.14, 157.99, 15.56, 0.000, 0.000, 0.000, 15:44:49.040, 1587847489040
57, -5.99, -382.09, -42.92, -47.34, 0.000, 0.000, 0.000, 15:44:49.052, 1587847489052
58, 156.04, -224.38, 118.16, 53.00, 0.000, 0.000, 0.000, 15:44:49.052, 1587847489052
59, 246.10, -135.30, 216.35, 48.86, 0.000, 0.000, 0.000, 15:44:49.052, 1587847489052
60, 39.38, -338.42, -1.59, -42.37, 0.000, 0.000, 0.000, 15:44:49.052, 1587847489052
61, 72.55, -306.50, 36.25, 14.78, 0.000, 0.000, 0.000, 15:44:49.066, 1587847489066
62, 274.70, -112.23, 233.94, 76.39, 0.000, 0.000, 0.000, 15:44:49.066, 1587847489066
63, 108.47, -273.43, 71.35, -19.62, 0.000, 0.000, 0.000, 15:44:49.084, 1587847489084
64, 11.11, -363.18, -25.49, -21.22, 0.000, 0.000, 0.000, 15:44:49.084, 1587847489084
65, 238.82, -143.89, 194.17, 75.08, 0.000, 0.000, 0.000, 15:44:49.085, 1587847489085
66, 201.55, -176.40, 163.99, 16.35, 0.000, 0.000, 0.000, 15:44:49.085, 1587847489085
67, -6.05, -377.58, -47.21, -45.36, 0.000, 0.000, 0.000, 15:44:49.097, 1587847489097
68, 154.12, -226.41, 109.40, 54.74, 0.000, 0.000, 0.000, 15:44:49.097, 1587847489097
69, 259.97, -126.45, 219.65, 56.88, 0.000, 0.000, 0.000, 15:44:49.113, 1587847489113
70, 40.08, -334.80, -4.29, -41.36, 0.000, 0.000, 0.000, 15:44:49.113, 1587847489113
71, 66.78, -307.03, 30.90, 11.97, 0.000, 0.000, 0.000, 15:44:49.114, 1587847489114
72, 275.22, -108.91, 231.79, 78.16, 0.000, 0.000, 0.000, 15:44:49.114, 1587847489114
73, 123.02, -262.94, 78.36, -15.61, 0.000, 0.000, 0.000, 15:44:49.127, 1587847489127
74, 2.15, -380.38, -42.90, -24.61, 0.000, 0.000, 0.000, 15:44:49.127, 1587847489127
75, 223.66, -156.88, 190.72, 71.30, 0.000, 0.000, 0.000, 15:44:49.142, 1587847489142
76, 198.12, -185.96, 157.87, 20.36, 0.000, 0.000, 0.000, 15:44:49.142, 1587847489142
77, 1.24, -379.14, -44.36, -46.68, 0.000, 0.000, 0.000, 15:44:49.144, 1587847489144
78, 155.25, -224.58, 116.35, 55.05, 0.000, 0.000, 0.000, 15:44:49.144, 1587847489144
79, 257.78, -124.16, 213.74, 52.32, 0.000, 0.000, 0.000, 15:44:49.157, 1587847489157
80, 41.51, -331.84, 1.12, -43.59, 0.000, 0.000, 0.000, 15:44:49.157, 1587847489157
81, 58.05, -320.32, 14.32, 13.35, 0.000, 0.000, 0.000, 15:44:49.172, 1587847489172
82, 274.48, -108.47, 227.73, 72.76, 0.000, 0.000, 0.000, 15:44:49.172, 1587847489172
83, 131.13, -245.66, 83.35, -23.17, 0.000, 0.000, 0.000, 15:44:49.174, 1587847489174
84, 10.37, -373.24, -32.74, -22.94, 0.000, 0.000, 0.000, 15:44:49.174, 1587847489174
85, 227.51, -149.61, 185.44, 71.95, 0.000, 0.000, 0.000, 15:44:49.187, 1587847489187
86, 205.24, -179.01, 159.65, 18.74, 0.000, 0.000, 0.000, 15:44:49.187, 1587847489187
87, -2.09, -375.67, -40.45, -41.97, 0.000, 0.000, 0.000, 15:44:49.202, 1587847489202
88, 147.84, -227.49, 110.04, 51.28, 0.000, 0.000, 0.000, 15:44:49.202, 1587847489202
89, 259.26, -122.83, 210.16, 57.00, 0.000, 0.000, 0.000, 15:44:49.204, 1587847489204
90, 32.44, -339.02, -6.58, -44.02, 0.000, 0.000, 0.000, 15:44:49.204, 1587847489204
91, 59.75, -312.90, 24.61, 14.36, 0.000, 0.000, 0.000, 15:44:49.217, 1587847489217
92, 280.00, -106.08, 230.83, 73.97, 0.000, 0.000, 0.000, 15:44:49.217, 1587847489217
93, 127.39, -259.80, 80.31, -18.79, 0.000, 0.000, 0.000, 15:44:49.232, 1587847489232
94, 4.63, -378.75, -42.45, -21.88, 0.000, 0.000, 0.000, 15:44:49.232, 1587847489232
95, 228.29, -151.24, 197.81, 77.05, 0.000, 0.000, 0.000, 15:44:49.234, 1587847489234
96, 199.04, -172.85, 157.64, 20.60, 0.000, 0.000, 0.000, 15:44:49.234, 1587847489234
97, -16.81, -385.87, -45.26, -42.66, 0.000, 0.000, 0.000, 15:44:49.248, 1587847489248
98, 148.59, -230.19, 113.34, 51.58, 0.000, 0.000, 0.000, 15:44:49.248, 1587847489248
99, 263.56, -122.91, 219.84, 57.27, 0.000, 0.000, 0.000, 15:44:49.262, 1587847489262
100, 39.65, -344.49, -3.26, -41.34, 0.000, 0.000, 0.000, 15:44:49.262, 1587847489262
101, 67.50, -309.96, 25.35, 7.64, 0.000, 0.000, 0.000, 15:44:49.263, 1587847489263
102, 266.49, -116.94, 225.03, 78.54, 0.000, 0.000, 0.000, 15:44:49.263, 1587847489263
103, 104.79, -268.53, 66.08, -18.56, 0.000, 0.000, 0.000, 15:44:49.277, 1587847489277
104, 3.83, -367.57, -30.48, -29.32, 0.000, 0.000, 0.000, 15:44:49.277, 1587847489277
105, 233.53, -151.98, 186.30, 74.52, 0.000, 0.000, 0.000, 15:44:49.292, 1587847489292
106, 202.40, -175.67, 160.86, 16.95, 0.000, 0.000, 0.000, 15:44:49.292, 1587847489292
107, -17.84, -385.14, -47.44, -50.31, 0.000, 0.000, 0.000, 15:44:49.292, 1587847489292
108, 144.32, -233.71, 107.02, 47.65, 0.000, 0.000, 0.000, 15:44:49.292, 1587847489292
109, 254.23, -127.92, 218.78, 53.55, 0.000, 0.000, 0.000, 15:44:49.308, 1587847489308
110, 49.85, -330.31, 2.22, -43.54, 0.000, 0.000, 0.000, 15:44:49.308, 1587847489308
111, 62.67, -316.48, 23.76, 13.91, 0.000, 0.000, 0.000, 15:44:49.322, 1587847489322
112, 274.60, -105.14, 229.07, 74.58, 0.000, 0.000, 0.000, 15:44:49.322, 1587847489322
113, 115.61, -260.23, 80.00, -18.19, 0.000, 0.000, 0.000, 15:44:49.323, 1587847489323
114, -2.55, -379.32, -38.75, -20.68, 0.000, 0.000, 0.000, 15:44:49.323, 1587847489323
115, 223.30, -154.93, 192.54, 73.15, 0.000, 0.000, 0.000, 15:44:49.337, 1587847489337
116, 215.87, -162.13, 178.96, 19.96, 0.000, 0.000, 0.000, 15:44:49.337, 1587847489337
117, -24.09, -399.17, -60.69, -43.84, 0.000, 0.000, 0.000, 15:44:49.353, 1587847489353
118, 128.51, -252.50, 91.71, 51.86, 0.000, 0.000, 0.000, 15:44:49.353, 1587847489353
119, 268.22, -118.85, 224.95, 55.76, 0.000, 0.000, 0.000, 15:44:49.355, 1587847489355
120, 44.11, -334.13, 8.64, -44.38, 0.000, 0.000, 0.000, 15:44:49.355, 1587847489355
121, 47.09, -328.10, 10.85, 12.20, 0.000, 0.000, 0.000, 15:44:49.366, 1587847489366
122, 271.20, -106.18, 229.96, 78.16, 0.000, 0.000, 0.000, 15:44:49.366, 1587847489366
123, 101.46, -270.58, 72.62, -16.30, 0.000, 0.000, 0.000, 15:44:49.388, 1587847489388
124, 0.39, -375.33, -33.87, -27.94, 0.000, 0.000, 0.000, 15:44:49.388, 1587847489388
125, 218.25, -175.10, 169.11, 71.92, 0.000, 0.000, 0.000, 15:44:49.388, 1587847489388
126, 218.19, -175.32, 158.29, 16.35, 0.000, 0.000, 0.000, 15:44:49.388, 1587847489388
127, 19.63, -361.31, -36.71, -46.91, 0.000, 0.000, 0.000, 15:44:49.397, 1587847489397
128, 169.21, -223.31, 108.23, 54.06, 0.000, 0.000, 0.000, 15:44:49.397, 1587847489397
129, 263.37, -128.01, 198.98, 61.94, 0.000, 0.000, 0.000, 15:44:49.413, 1587847489413
130, 42.49, -345.97, -21.49, -45.53, 0.000, 0.000, 0.000, 15:44:49.413, 1587847489413
131, 50.57, -332.15, -2.68, 10.73, 0.000, 0.000, 0.000, 15:44:49.415, 1587847489415
132, 281.09, -103.58, 221.44, 79.28, 0.000, 0.000, 0.000, 15:44:49.415, 1587847489415
133, 120.52, -259.07, 59.54, -16.95, 0.000, 0.000, 0.000, 15:44:49.427, 1587847489427
134, 4.20, -371.64, -45.38, -31.01, 0.000, 0.000, 0.000, 15:44:49.427, 1587847489427
135, 224.63, -164.52, 168.15, 76.58, 0.000, 0.000, 0.000, 15:44:49.442, 1587847489442
136, 224.08, -168.21, 153.34, 21.57, 0.000, 0.000, 0.000, 15:44:49.442, 1587847489442
137, 4.75, -378.98, -51.86, -48.15, 0.000, 0.000, 0.000, 15:44:49.444, 1587847489444
138, 137.36, -251.22, 79.36, 45.32, 0.000, 0.000, 0.000, 15:44:49.444, 1587847489444
139, 261.07, -132.16, 192.73, 55.79, 0.000, 0.000, 0.000, 15:44:49.457, 1587847489457
140, 52.68, -327.96, -4.47, -46.80, 0.000, 0.000, 0.000, 15:44:49.457, 1587847489457
141, 42.60, -337.98, -8.39, 4.96, 0.000, 0.000, 0.000, 15:44:49.473, 1587847489473
142, 291.82, -106.45, 223.81, 75.08, 0.000, 0.000, 0.000, 15:44:49.473, 1587847489473
143, 147.20, -244.72, 82.99, -13.72, 0.000, 0.000, 0.000, 15:44:49.474, 1587847489474
144, 8.34, -367.82, -41.39, -24.62, 0.000, 0.000, 0.000, 15:44:49.474, 1587847489474
145, 209.41, -170.92, 155.21, 75.96, 0.000, 0.000, 0.000, 15:44:49.490, 1587847489490
146, 187.95, -192.55, 128.52, 21.93, 0.000, 0.000, 0.000, 15:44:49.490, 1587847489490
147, -17.96, -393.48, -70.97, -46.88, 0.000, 0.000, 0.000, 15:44:49.503, 1587847489503
148, 151.71, -225.82, 104.10, 50.65, 0.000, 0.000, 0.000, 15:44:49.503, 1587847489503
149, 280.73, -106.36, 218.12, 59.30, 0.000, 0.000, 0.000, 15:44:49.504, 1587847489504
150, 47.99, -330.68, -7.41, -38.45, 0.000, 0.000, 0.000, 15:44:49.504, 1587847489504
151, 46.07, -328.43, 3.31, 7.41, 0.000, 0.000, 0.000, 15:44:49.518, 1587847489518
152, 258.88, -121.10, 208.12, 78.06, 0.000, 0.000, 0.000, 15:44:49.518, 1587847489518
153, 105.90, -275.09, 52.26, -17.44, 0.000, 0.000, 0.000, 15:44:49.532, 1587847489532
154, 7.81, -366.10, -38.28, -25.52, 0.000, 0.000, 0.000, 15:44:49.532, 1587847489532
155, 192.93, -168.01, 151.43, 78.80, 0.000, 0.000, 0.000, 15:44:49.547, 1587847489547
156, 227.81, -146.49, 173.44, 26.44, 0.000, 0.000, 0.000, 15:44:49.547, 1587847489547
157, 5.43, -370.18, -50.58, -46.07, 0.000, 0.000, 0.000, 15:44:49.548, 1587847489548
158, 115.59, -249.39, 80.44, 51.06, 0.000, 0.000, 0.000, 15:44:49.548, 1587847489548
159, 266.91, -106.46, 217.48, 59.95, 0.000, 0.000, 0.000, 15:44:49.562, 1587847489562
160, 45.67, -324.38, -11.23, -37.67, 0.000, 0.000, 0.000, 15:44:49.562, 1587847489562
161, 45.53, -328.60, -8.21, 7.93, 0.000, 0.000, 0.000, 15:44:49.563, 1587847489563
162, 273.68, -92.79, 228.14, 81.19, 0.000, 0.000, 0.000, 15:44:49.563, 1587847489563
163, 104.14, -249.89, 75.01, -16.26, 0.000, 0.000, 0.000, 15:44:49.577, 1587847489577
164, 12.71, -362.06, -42.42, -30.89, 0.000, 0.000, 0.000, 15:44:49.577, 1587847489577
165, 212.24, -167.36, 162.64, 73.92, 0.000, 0.000, 0.000, 15:44:49.593, 1587847489593
166, 192.48, -188.97, 134.40, 22.41, 0.000, 0.000, 0.000, 15:44:49.593, 1587847489593
167, 8.19, -363.93, -37.75, -46.58, 0.000, 0.000, 0.000, 15:44:49.593, 1587847489593
168, 110.70, -250.99, 74.92, 47.27, 0.000, 0.000, 0.000, 15:44:49.593, 1587847489593
169, 265.44, -108.34, 218.37, 59.80, 0.000, 0.000, 0.000, 15:44:49.607, 1587847489607
170, 66.89, -304.00, 17.73, -40.71, 0.000, 0.000, 0.000, 15:44:49.607, 1587847489607
171, 46.37, -319.80, -0.89, 7.65, 0.000, 0.000, 0.000, 15:44:49.622, 1587847489622
172, 243.32, -133.19, 200.52, 76.20, 0.000, 0.000, 0.000, 15:44:49.622, 1587847489622
173, 160.93, -205.96, 115.89, -15.18, 0.000, 0.000, 0.000, 15:44:49.623, 1587847489623
174, -16.83, -382.28, -56.75, -29.62, 0.000, 0.000, 0.000, 15:44:49.623, 1587847489623
175, 206.58, -164.39, 160.04, 77.73, 0.000, 0.000, 0.000, 15:44:49.637, 1587847489637
176, 225.09, -160.29, 159.61, 24.54, 0.000, 0.000, 0.000, 15:44:49.637, 1587847489637
177, -5.38, -371.05, -44.27, -47.49, 0.000, 0.000, 0.000, 15:44:49.653, 1587847489653
178, 120.91, -239.54, 99.73, 48.39, 0.000, 0.000, 0.000, 15:44:49.653, 1587847489653
179, 266.08, -104.20, 241.40, 61.56, 0.000, 0.000, 0.000, 15:44:49.653, 1587847489653
180, 32.72, -321.84, 18.04, -35.16, 0.000, 0.000, 0.000, 15:44:49.653, 1587847489653
181, 14.19, -334.80, 9.78, 5.36, 0.000, 0.000, 0.000, 15:44:49.667, 1587847489667
182, 259.43, -93.65, 256.07, 75.89, 0.000, 0.000, 0.000, 15:44:49.667, 1587847489667
183, 106.28, -243.91, 94.53, -7.46, 0.000, 0.000, 0.000, 15:44:49.684, 1587847489684
184, -31.73, -369.95, -19.58, -25.15, 0.000, 0.000, 0.000, 15:44:49.684, 1587847489684
185, 190.50, -153.94, 189.51, 69.36, 0.000, 0.000, 0.000, 15:44:49.685, 1587847489685
186, 181.21, -166.74, 176.77, 28.20, 0.000, 0.000, 0.000, 15:44:49.685, 1587847489685
187, -47.53, -382.31, -39.08, -46.83, 0.000, 0.000, 0.000, 15:44:49.697, 1587847489697
188, 115.72, -231.67, 117.13, 41.28, 0.000, 0.000, 0.000, 15:44:49.697, 1587847489697
189, 256.67, -112.72, 232.80, 59.82, 0.000, 0.000, 0.000, 15:44:49.712, 1587847489712
190, 42.15, -326.94, 8.95, -39.94, 0.000, 0.000, 0.000, 15:44:49.712, 1587847489712
191, 26.76, -328.52, 12.70, 10.11, 0.000, 0.000, 0.000, 15:44:49.713, 1587847489713
192, 260.14, -100.39, 236.41, 78.07, 0.000, 0.000, 0.000, 15:44:49.713, 1587847489713
193, 103.89, -243.76, 88.92, -10.21, 0.000, 0.000, 0.000, 15:44:49.726, 1587847489726
194, -30.43, -373.05, -31.98, -28.66, 0.000, 0.000, 0.000, 15:44:49.726, 1587847489726
195, 201.64, -159.19, 177.74, 76.75, 0.000, 0.000, 0.000, 15:44:49.742, 1587847489742
196, 192.60, -160.65, 182.70, 29.97, 0.000, 0.000, 0.000, 15:44:49.742, 1587847489742
197, -1.15, -351.66, -17.67, -41.03, 0.000, 0.000, 0.000, 15:44:49.743, 1587847489743
198, 108.00, -246.26, 98.34, 47.15, 0.000, 0.000, 0.000, 15:44:49.743, 1587847489743
199, 217.13, -121.48, 219.07, 57.39, 0.000, 0.000, 0.000, 15:44:49.757, 1587847489757
200, 16.32, -318.94, 15.76, -37.60, 0.000, 0.000, 0.000, 15:44:49.757, 1587847489757
0, 49.27, -309.52, 18.03, 5.42, 0.000, 0.000, 0.000, 15:44:49.758, 1587847489758
