%OpenBCI Raw EEG Data
%Number of channels = 4
%Sample Rate = 200.0 Hz
%First Column = SampleIndex
%Last Column = Timestamp 
%Other Columns = EEG data in microvolts followed by Accel Data (in G) interleaved with Aux Data
0, 137.20, -259.04, 102.32, 13.70, 0.000, 0.000, 0.000, 15:40:44.842, 1587847244842
1, 106.93, -288.83, 78.09, 4.16, 0.000, 0.000, 0.000, 15:40:44.856, 1587847244856
2, 136.18, -262.95, 100.16, 24.45, 0.000, 0.000, 0.000, 15:40:44.856, 1587847244856
3, 150.23, -243.68, 128.50, 23.96, 0.000, 0.000, 0.000, 15:40:44.869, 1587847244869
4, 107.74, -280.37, 90.74, 8.27, 0.000, 0.000, 0.000, 15:40:44.869, 1587847244869
5, 119.45, -282.53, 89.83, 17.96, 0.000, 0.000, 0.000, 15:40:44.870, 1587847244870
6, 171.57, -238.37, 135.52, 26.01, 0.000, 0.000, 0.000, 15:40:44.870, 1587847244870
7, 124.40, -277.90, 93.70, 8.07, 0.000, 0.000, 0.000, 15:40:44.885, 1587847244885
8, 105.26, -292.95, 73.17, 8.09, 0.000, 0.000, 0.000, 15:40:44.885, 1587847244885
9, 151.79, -252.53, 124.62, 32.06, 0.000, 0.000, 0.000, 15:40:44.899, 1587847244899
10, 138.85, -257.88, 120.39, 13.00, 0.000, 0.000, 0.000, 15:40:44.899, 1587847244899
11, 94.04, -294.12, 74.04, 1.46, 0.000, 0.000, 0.000, 15:40:44.900, 1587847244900
12, 107.93, -268.06, 99.71, 23.61, 0.000, 0.000, 0.000, 15:40:44.900, 1587847244900
13, 159.07, -245.88, 118.02, 21.72, 0.000, 0.000, 0.000, 15:40:44.915, 1587847244915
14, 122.01, -287.80, 76.92, 4.53, 0.000, 0.000, 0.000, 15:40:44.915, 1587847244915
15, 118.99, -284.87, 83.49, 20.35, 0.000, 0.000, 0.000, 15:40:44.929, 1587847244929
16, 158.66, -234.73, 121.73, 29.66, 0.000, 0.000, 0.000, 15:40:44.929, 1587847244929
17, 109.36, -268.31, 98.87, 7.38, 0.000, 0.000, 0.000, 15:40:44.930, 1587847244930
18, 101.73, -275.64, 84.74, 9.17, 0.000, 0.000, 0.000, 15:40:44.930, 1587847244930
19, 149.83, -257.40, 115.38, 31.10, 0.000, 0.000, 0.000, 15:40:44.944, 1587847244944
20, 135.89, -248.13, 111.77, 17.72, 0.000, 0.000, 0.000, 15:40:44.944, 1587847244944
21, 107.65, -276.47, 82.65, 7.23, 0.000, 0.000, 0.000, 15:40:44.961, 1587847244961
22, 125.45, -269.23, 93.08, 27.79, 0.000, 0.000, 0.000, 15:40:44.961, 1587847244961
23, 155.98, -247.73, 118.17, 23.45, 0.000, 0.000, 0.000, 15:40:44.965, 1587847244965
24, 112.99, -287.03, 75.57, -0.82, 0.000, 0.000, 0.000, 15:40:44.965, 1587847244965
25, 124.39, -267.61, 99.04, 25.11, 0.000, 0.000, 0.000, 15:40:44.974, 1587847244974
26, 149.15, -238.82, 125.54, 30.27, 0.000, 0.000, 0.000, 15:40:44.974, 1587847244974
27, 121.22, -263.56, 95.64, 5.53, 0.000, 0.000, 0.000, 15:40:44.991, 1587847244991
28, 119.88, -273.35, 83.24, 13.71, 0.000, 0.000, 0.000, 15:40:44.991, 1587847244991
29, 140.63, -257.14, 113.47, 28.01, 0.000, 0.000, 0.000, 15:40:45.005, 1587847245005
30, 146.05, -251.15, 113.58, 14.57, 0.000, 0.000, 0.000, 15:40:45.005, 1587847245005
31, 107.75, -288.40, 74.14, 6.91, 0.000, 0.000, 0.000, 15:40:45.007, 1587847245007
32, 126.89, -268.41, 99.32, 23.65, 0.000, 0.000, 0.000, 15:40:45.007, 1587847245007
33, 149.76, -243.04, 118.01, 24.13, 0.000, 0.000, 0.000, 15:40:45.020, 1587847245020
34, 125.43, -288.63, 89.17, 2.57, 0.000, 0.000, 0.000, 15:40:45.020, 1587847245020
35, 119.57, -265.50, 95.31, 19.22, 0.000, 0.000, 0.000, 15:40:45.025, 1587847245025
36, 149.93, -241.19, 127.46, 28.51, 0.000, 0.000, 0.000, 15:40:45.025, 1587847245025
37, 128.28, -262.70, 97.30, 4.09, 0.000, 0.000, 0.000, 15:40:45.035, 1587847245035
38, 101.86, -294.30, 68.04, 5.76, 0.000, 0.000, 0.000, 15:40:45.035, 1587847245035
39, 141.02, -257.82, 104.39, 27.10, 0.000, 0.000, 0.000, 15:40:45.050, 1587847245050
40, 130.19, -261.54, 105.43, 14.30, 0.000, 0.000, 0.000, 15:40:45.050, 1587847245050
41, 94.75, -288.85, 87.02, 8.51, 0.000, 0.000, 0.000, 15:40:45.051, 1587847245051
42, 144.15, -263.97, 109.18, 19.51, 0.000, 0.000, 0.000, 15:40:45.051, 1587847245051
43, 151.59, -236.63, 126.49, 22.78, 0.000, 0.000, 0.000, 15:40:45.068, 1587847245068
44, 110.05, -292.79, 76.39, 7.61, 0.000, 0.000, 0.000, 15:40:45.068, 1587847245068
45, 109.06, -283.69, 83.81, 15.09, 0.000, 0.000, 0.000, 15:40:45.080, 1587847245080
46, 151.74, -242.22, 112.86, 24.43, 0.000, 0.000, 0.000, 15:40:45.080, 1587847245080
47, 135.04, -257.75, 100.26, 2.30, 0.000, 0.000, 0.000, 15:40:45.084, 1587847245084
48, 104.95, -294.10, 72.72, 7.85, 0.000, 0.000, 0.000, 15:40:45.084, 1587847245084
49, 140.56, -256.81, 109.05, 28.20, 0.000, 0.000, 0.000, 15:40:45.096, 1587847245096
50, 149.31, -244.79, 124.62, 16.24, 0.000, 0.000, 0.000, 15:40:45.096, 1587847245096
51, 105.74, -291.29, 74.66, 4.61, 0.000, 0.000, 0.000, 15:40:45.110, 1587847245110
52, 138.17, -263.51, 95.03, 21.97, 0.000, 0.000, 0.000, 15:40:45.110, 1587847245110
53, 149.62, -246.53, 114.21, 23.50, 0.000, 0.000, 0.000, 15:40:45.111, 1587847245111
54, 118.53, -283.29, 75.28, 4.80, 0.000, 0.000, 0.000, 15:40:45.111, 1587847245111
55, 129.68, -274.45, 73.51, 15.79, 0.000, 0.000, 0.000, 15:40:45.125, 1587847245125
56, 166.51, -237.64, 119.22, 26.39, 0.000, 0.000, 0.000, 15:40:45.125, 1587847245125
57, 125.83, -269.00, 89.09, 2.11, 0.000, 0.000, 0.000, 15:40:45.141, 1587847245141
58, 104.24, -290.06, 69.50, 8.45, 0.000, 0.000, 0.000, 15:40:45.141, 1587847245141
59, 154.54, -240.89, 122.25, 24.20, 0.000, 0.000, 0.000, 15:40:45.146, 1587847245146
60, 141.73, -256.65, 108.82, 13.88, 0.000, 0.000, 0.000, 15:40:45.146, 1587847245146
61, 113.82, -284.13, 72.16, -1.59, 0.000, 0.000, 0.000, 15:40:45.156, 1587847245156
62, 146.56, -246.92, 111.45, 21.84, 0.000, 0.000, 0.000, 15:40:45.156, 1587847245156
63, 135.54, -256.82, 104.35, 26.62, 0.000, 0.000, 0.000, 15:40:45.172, 1587847245172
64, 101.85, -285.71, 69.77, 3.98, 0.000, 0.000, 0.000, 15:40:45.172, 1587847245172
65, 100.76, -290.08, 96.67, 17.66, 0.000, 0.000, 0.000, 15:40:45.176, 1587847245176
66, 163.33, -228.67, 131.51, 26.55, 0.000, 0.000, 0.000, 15:40:45.176, 1587847245176
67, 130.31, -261.05, 90.27, 5.82, 0.000, 0.000, 0.000, 15:40:45.185, 1587847245185
68, 123.90, -279.09, 78.97, 8.30, 0.000, 0.000, 0.000, 15:40:45.185, 1587847245185
69, 144.02, -249.12, 111.55, 29.36, 0.000, 0.000, 0.000, 15:40:45.200, 1587847245200
70, 138.00, -252.65, 105.02, 12.77, 0.000, 0.000, 0.000, 15:40:45.200, 1587847245200
71, 106.05, -296.71, 67.22, 0.97, 0.000, 0.000, 0.000, 15:40:45.202, 1587847245202
72, 139.73, -253.90, 101.03, 27.74, 0.000, 0.000, 0.000, 15:40:45.202, 1587847245202
73, 155.18, -240.34, 125.67, 23.57, 0.000, 0.000, 0.000, 15:40:45.215, 1587847245215
74, 107.92, -287.48, 83.44, 3.33, 0.000, 0.000, 0.000, 15:40:45.215, 1587847245215
75, 121.62, -272.38, 79.96, 14.20, 0.000, 0.000, 0.000, 15:40:45.232, 1587847245232
76, 164.17, -231.09, 130.68, 29.50, 0.000, 0.000, 0.000, 15:40:45.232, 1587847245232
77, 122.22, -268.40, 92.50, 3.51, 0.000, 0.000, 0.000, 15:40:45.234, 1587847245234
78, 118.92, -279.04, 79.48, 7.00, 0.000, 0.000, 0.000, 15:40:45.234, 1587847245234
79, 150.14, -248.13, 117.38, 28.94, 0.000, 0.000, 0.000, 15:40:45.245, 1587847245245
80, 155.56, -242.39, 122.64, 13.67, 0.000, 0.000, 0.000, 15:40:45.245, 1587847245245
81, 105.55, -290.06, 71.31, 1.62, 0.000, 0.000, 0.000, 15:40:45.259, 1587847245259
82, 123.52, -266.70, 90.14, 22.22, 0.000, 0.000, 0.000, 15:40:45.259, 1587847245259
83, 157.22, -243.36, 127.60, 25.17, 0.000, 0.000, 0.000, 15:40:45.264, 1587847245264
84, 114.19, -273.92, 85.36, 4.03, 0.000, 0.000, 0.000, 15:40:45.264, 1587847245264
85, 112.05, -262.74, 101.57, 18.61, 0.000, 0.000, 0.000, 15:40:45.275, 1587847245275
86, 158.49, -231.42, 135.31, 27.13, 0.000, 0.000, 0.000, 15:40:45.275, 1587847245275
87, 133.85, -265.64, 102.68, 5.89, 0.000, 0.000, 0.000, 15:40:45.297, 1587847245297
88, 87.22, -293.54, 73.18, 5.00, 0.000, 0.000, 0.000, 15:40:45.297, 1587847245297
89, 152.25, -242.16, 121.60, 31.38, 0.000, 0.000, 0.000, 15:40:45.300, 1587847245300
90, 139.36, -255.56, 113.71, 16.67, 0.000, 0.000, 0.000, 15:40:45.300, 1587847245300
91, 99.07, -288.69, 77.66, 2.28, 0.000, 0.000, 0.000, 15:40:45.306, 1587847245306
92, 131.63, -259.08, 105.13, 23.20, 0.000, 0.000, 0.000, 15:40:45.306, 1587847245306
93, 148.62, -243.47, 131.13, 21.86, 0.000, 0.000, 0.000, 15:40:45.324, 1587847245324
94, 111.30, -284.23, 89.56, 7.26, 0.000, 0.000, 0.000, 15:40:45.324, 1587847245324
95, 112.57, -285.28, 94.45, 17.39, 0.000, 0.000, 0.000, 15:40:45.325, 1587847245325
96, 151.59, -250.18, 124.07, 29.03, 0.000, 0.000, 0.000, 15:40:45.325, 1587847245325
97, 135.35, -263.91, 101.41, 8.32, 0.000, 0.000, 0.000, 15:40:45.339, 1587847245339
98, 106.22, -282.02, 81.12, 8.42, 0.000, 0.000, 0.000, 15:40:45.339, 1587847245339
99, 143.97, -253.69, 125.64, 27.07, 0.000, 0.000, 0.000, 15:40:45.357, 1587847245357
100, 132.70, -258.89, 106.72, 14.48, 0.000, 0.000, 0.000, 15:40:45.357, 1587847245357
101, 101.11, -283.51, 78.59, 5.36, 0.000, 0.000, 0.000, 15:40:45.371, 1587847245371
102, 134.08, -254.06, 105.76, 26.68, 0.000, 0.000, 0.000, 15:40:45.371, 1587847245371
103, 151.71, -244.78, 118.12, 22.71, 0.000, 0.000, 0.000, 15:40:45.374, 1587847245374
104, 117.16, -274.96, 84.90, 5.19, 0.000, 0.000, 0.000, 15:40:45.374, 1587847245374
105, 116.15, -275.69, 88.52, 19.76, 0.000, 0.000, 0.000, 15:40:45.380, 1587847245380
106, 137.17, -257.88, 117.10, 30.67, 0.000, 0.000, 0.000, 15:40:45.380, 1587847245380
107, 113.48, -280.36, 90.73, 4.82, 0.000, 0.000, 0.000, 15:40:45.383, 1587847245383
108, 100.60, -297.94, 71.89, 3.26, 0.000, 0.000, 0.000, 15:40:45.383, 1587847245383
109, 139.90, -256.73, 110.74, 26.71, 0.000, 0.000, 0.000, 15:40:45.396, 1587847245396
110, 150.33, -244.77, 115.45, 12.88, 0.000, 0.000, 0.000, 15:40:45.396, 1587847245396
111, 117.43, -284.09, 82.00, 6.25, 0.000, 0.000, 0.000, 15:40:45.410, 1587847245410
112, 148.62, -252.31, 108.97, 24.43, 0.000, 0.000, 0.000, 15:40:45.410, 1587847245410
113, 155.84, -255.54, 113.69, 23.58, 0.000, 0.000, 0.000, 15:40:45.412, 1587847245412
114, 102.46, -288.55, 73.00, 3.31, 0.000, 0.000, 0.000, 15:40:45.412, 1587847245412
115, 115.33, -279.45, 86.67, 19.81, 0.000, 0.000, 0.000, 15:40:45.425, 1587847245425
116, 152.84, -243.38, 121.28, 26.20, 0.000, 0.000, 0.000, 15:40:45.425, 1587847245425
117, 124.22, -271.45, 86.11, 5.89, 0.000, 0.000, 0.000, 15:40:45.442, 1587847245442
118, 106.60, -294.35, 62.04, 10.89, 0.000, 0.000, 0.000, 15:40:45.442, 1587847245442
119, 146.77, -252.09, 109.54, 30.07, 0.000, 0.000, 0.000, 15:40:45.448, 1587847245448
120, 148.64, -256.93, 108.83, 12.56, 0.000, 0.000, 0.000, 15:40:45.448, 1587847245448
121, 104.98, -300.52, 67.33, 4.58, 0.000, 0.000, 0.000, 15:40:45.455, 1587847245455
122, 131.37, -270.69, 95.00, 20.85, 0.000, 0.000, 0.000, 15:40:45.455, 1587847245455
123, 165.16, -242.16, 120.95, 17.36, 0.000, 0.000, 0.000, 15:40:45.470, 1587847245470
124, 106.68, -302.94, 60.11, 2.75, 0.000, 0.000, 0.000, 15:40:45.470, 1587847245470
125, 123.54, -280.56, 70.40, 12.55, 0.000, 0.000, 0.000, 15:40:45.473, 1587847245473
126, 166.29, -243.74, 109.89, 26.73, 0.000, 0.000, 0.000, 15:40:45.473, 1587847245473
127, 134.98, -275.64, 75.50, 6.35, 0.000, 0.000, 0.000, 15:40:45.485, 1587847245485
128, 121.62, -292.34, 53.69, 7.69, 0.000, 0.000, 0.000, 15:40:45.485, 1587847245485
129, 168.33, -248.60, 106.05, 33.71, 0.000, 0.000, 0.000, 15:40:45.500, 1587847245500
130, 159.56, -265.72, 87.44, 13.83, 0.000, 0.000, 0.000, 15:40:45.500, 1587847245500
131, 131.21, -294.81, 60.32, -0.83, 0.000, 0.000, 0.000, 15:40:45.502, 1587847245502
132, 153.81, -269.79, 83.94, 27.53, 0.000, 0.000, 0.000, 15:40:45.502, 1587847245502
133, 166.52, -255.93, 97.71, 23.25, 0.000, 0.000, 0.000, 15:40:45.514, 1587847245514
134, 124.86, -292.82, 62.17, -2.14, 0.000, 0.000, 0.000, 15:40:45.514, 1587847245514
135, 136.55, -277.70, 81.63, 20.26, 0.000, 0.000, 0.000, 15:40:45.531, 1587847245531
136, 173.46, -244.11, 114.85, 29.18, 0.000, 0.000, 0.000, 15:40:45.531, 1587847245531
137, 136.26, -272.29, 79.18, 9.57, 0.000, 0.000, 0.000, 15:40:45.534, 1587847245534
138, 118.75, -290.23, 52.15, 7.76, 0.000, 0.000, 0.000, 15:40:45.534, 1587847245534
139, 166.17, -246.85, 97.42, 30.79, 0.000, 0.000, 0.000, 15:40:45.565, 1587847245565
140, 159.71, -251.42, 87.56, 16.84, 0.000, 0.000, 0.000, 15:40:45.565, 1587847245565
141, 120.69, -294.02, 54.05, 7.21, 0.000, 0.000, 0.000, 15:40:45.568, 1587847245568
142, 150.36, -268.20, 78.41, 22.91, 0.000, 0.000, 0.000, 15:40:45.568, 1587847245568
143, 189.66, -235.64, 110.99, 21.53, 0.000, 0.000, 0.000, 15:40:45.568, 1587847245568
144, 148.30, -291.02, 57.60, 1.47, 0.000, 0.000, 0.000, 15:40:45.568, 1587847245568
145, 150.08, -288.09, 62.66, 13.96, 0.000, 0.000, 0.000, 15:40:45.574, 1587847245574
146, 191.58, -243.92, 103.39, 35.06, 0.000, 0.000, 0.000, 15:40:45.574, 1587847245574
147, 173.60, -268.16, 76.38, 9.13, 0.000, 0.000, 0.000, 15:40:45.590, 1587847245590
148, 147.53, -294.25, 49.16, 4.95, 0.000, 0.000, 0.000, 15:40:45.590, 1587847245590
149, 191.88, -246.77, 94.24, 33.38, 0.000, 0.000, 0.000, 15:40:45.595, 1587847245595
150, 181.36, -257.22, 90.19, 12.96, 0.000, 0.000, 0.000, 15:40:45.595, 1587847245595
151, 136.17, -303.49, 45.15, 0.65, 0.000, 0.000, 0.000, 15:40:45.607, 1587847245607
152, 162.89, -268.54, 77.50, 25.43, 0.000, 0.000, 0.000, 15:40:45.607, 1587847245607
153, 181.65, -243.88, 108.84, 27.85, 0.000, 0.000, 0.000, 15:40:45.620, 1587847245620
154, 141.22, -289.52, 72.15, 4.26, 0.000, 0.000, 0.000, 15:40:45.620, 1587847245620
155, 154.31, -266.05, 82.08, 38.53, 0.000, 0.000, 0.000, 15:40:45.626, 1587847245626
156, 205.72, -220.15, 128.49, 57.26, 0.000, 0.000, 0.000, 15:40:45.626, 1587847245626
157, 183.56, -253.20, 93.48, 24.00, 0.000, 0.000, 0.000, 15:40:45.634, 1587847245634
158, 150.24, -281.14, 73.15, 27.73, 0.000, 0.000, 0.000, 15:40:45.634, 1587847245634
159, 201.78, -225.56, 132.99, 58.34, 0.000, 0.000, 0.000, 15:40:45.650, 1587847245650
160, 219.75, -210.79, 141.01, 44.09, 0.000, 0.000, 0.000, 15:40:45.650, 1587847245650
161, 140.25, -292.14, 54.77, 16.82, 0.000, 0.000, 0.000, 15:40:45.651, 1587847245651
162, 180.88, -242.58, 103.29, 43.57, 0.000, 0.000, 0.000, 15:40:45.651, 1587847245651
163, 225.59, -203.73, 153.55, 54.71, 0.000, 0.000, 0.000, 15:40:45.664, 1587847245664
164, 166.72, -248.30, 105.44, 30.90, 0.000, 0.000, 0.000, 15:40:45.664, 1587847245664
165, 182.97, -239.96, 114.50, 57.59, 0.000, 0.000, 0.000, 15:40:45.680, 1587847245680
166, 273.85, -147.79, 206.56, 107.79, 0.000, 0.000, 0.000, 15:40:45.680, 1587847245680
167, 268.24, -151.83, 191.72, 97.18, 0.000, 0.000, 0.000, 15:40:45.683, 1587847245683
168, 173.30, -222.49, 121.74, 64.20, 0.000, 0.000, 0.000, 15:40:45.683, 1587847245683
169, 293.55, -105.76, 242.07, 142.61, 0.000, 0.000, 0.000, 15:40:45.694, 1587847245694
170, 299.84, -96.02, 252.86, 128.46, 0.000, 0.000, 0.000, 15:40:45.694, 1587847245694
171, 204.97, -185.83, 167.32, 98.02, 0.000, 0.000, 0.000, 15:40:45.710, 1587847245710
172, 214.81, -123.37, 224.33, 132.84, 0.000, 0.000, 0.000, 15:40:45.710, 1587847245710
173, 352.65, -76.57, 273.87, 139.45, 0.000, 0.000, 0.000, 15:40:45.711, 1587847245711
174, 313.90, -173.30, 177.37, 92.07, 0.000, 0.000, 0.000, 15:40:45.711, 1587847245711
175, 250.75, -205.07, 143.77, 97.91, 0.000, 0.000, 0.000, 15:40:45.724, 1587847245724
176, 308.75, -140.94, 215.70, 112.69, 0.000, 0.000, 0.000, 15:40:45.724, 1587847245724
177, 263.13, -144.32, 213.74, 105.52, 0.000, 0.000, 0.000, 15:40:45.740, 1587847245740
178, 158.44, -233.33, 123.27, 57.24, 0.000, 0.000, 0.000, 15:40:45.740, 1587847245740
179, 228.32, -160.85, 199.25, 112.02, 0.000, 0.000, 0.000, 15:40:45.742, 1587847245742
180, 284.42, -108.96, 260.66, 120.36, 0.000, 0.000, 0.000, 15:40:45.742, 1587847245742
181, 139.66, -253.22, 111.38, 42.34, 0.000, 0.000, 0.000, 15:40:45.754, 1587847245754
182, 191.97, -194.12, 165.07, 97.37, 0.000, 0.000, 0.000, 15:40:45.754, 1587847245754
183, 273.96, -112.95, 249.68, 119.39, 0.000, 0.000, 0.000, 15:40:45.769, 1587847245769
184, 139.28, -242.76, 115.00, 25.98, 0.000, 0.000, 0.000, 15:40:45.769, 1587847245769
185, 124.45, -259.42, 109.76, 50.11, 0.000, 0.000, 0.000, 15:40:45.771, 1587847245771
186, 246.12, -140.36, 216.42, 91.15, 0.000, 0.000, 0.000, 15:40:45.771, 1587847245771
187, 196.93, -188.21, 170.57, 50.11, 0.000, 0.000, 0.000, 15:40:45.784, 1587847245784
188, 77.80, -307.79, 50.06, 4.46, 0.000, 0.000, 0.000, 15:40:45.784, 1587847245784
189, 178.91, -212.33, 139.67, 56.41, 0.000, 0.000, 0.000, 15:40:45.799, 1587847245799
190, 203.27, -192.24, 160.01, 32.16, 0.000, 0.000, 0.000, 15:40:45.799, 1587847245799
191, 49.29, -346.48, 7.19, -28.27, 0.000, 0.000, 0.000, 15:40:45.801, 1587847245801
192, 119.84, -276.67, 81.09, 31.42, 0.000, 0.000, 0.000, 15:40:45.801, 1587847245801
193, 258.59, -139.00, 216.70, 76.59, 0.000, 0.000, 0.000, 15:40:45.814, 1587847245814
194, 114.38, -272.37, 80.13, 6.00, 0.000, 0.000, 0.000, 15:40:45.814, 1587847245814
195, 45.18, -341.33, 7.68, -3.49, 0.000, 0.000, 0.000, 15:40:45.864, 1587847245864
196, 238.85, -160.63, 196.85, 81.94, 0.000, 0.000, 0.000, 15:40:45.864, 1587847245864
197, 190.28, -198.18, 156.84, 28.04, 0.000, 0.000, 0.000, 15:40:45.873, 1587847245873
198, 23.93, -364.63, -12.69, -18.51, 0.000, 0.000, 0.000, 15:40:45.873, 1587847245873
199, 189.46, -196.68, 148.93, 70.73, 0.000, 0.000, 0.000, 15:40:45.873, 1587847245873
200, 259.71, -130.70, 217.73, 68.17, 0.000, 0.000, 0.000, 15:40:45.873, 1587847245873
0, 48.65, -331.23, 17.29, -15.70, 0.000, 0.000, 0.000, 15:40:45.875, 1587847245875
1, 96.88, -288.24, 66.99, 37.87, 0.000, 0.000, 0.000, 15:40:45.878, 1587847245878
2, 286.51, -105.96, 249.42, 94.34, 0.000, 0.000, 0.000, 15:40:45.878, 1587847245878
3, 104.36, -278.86, 78.53, -9.82, 0.000, 0.000, 0.000, 15:40:45.879, 1587847245879
4, 31.89, -355.74, -1.76, -1.42, 0.000, 0.000, 0.000, 15:40:45.879, 1587847245879
5, 259.66, -134.84, 216.87, 96.40, 0.000, 0.000, 0.000, 15:40:45.880, 1587847245880
6, 203.81, -190.84, 165.79, 34.70, 0.000, 0.000, 0.000, 15:40:45.880, 1587847245880
7, 11.17, -370.81, -14.37, -27.32, 0.000, 0.000, 0.000, 15:40:45.889, 1587847245889
8, 170.36, -214.33, 146.82, 70.83, 0.000, 0.000, 0.000, 15:40:45.889, 1587847245889
9, 246.53, -150.59, 216.33, 62.39, 0.000, 0.000, 0.000, 15:40:45.905, 1587847245905
10, 31.33, -357.20, -9.81, -29.79, 0.000, 0.000, 0.000, 15:40:45.905, 1587847245905
11, 89.40, -298.27, 51.41, 26.83, 0.000, 0.000, 0.000, 15:40:45.907, 1587847245907
12, 276.65, -120.92, 229.58, 83.45, 0.000, 0.000, 0.000, 15:40:45.907, 1587847245907
13, 99.06, -293.65, 56.02, -12.63, 0.000, 0.000, 0.000, 15:40:45.923, 1587847245923
14, 36.24, -349.93, 4.57, -5.06, 0.000, 0.000, 0.000, 15:40:45.923, 1587847245923
15, 225.29, -160.85, 189.95, 72.10, 0.000, 0.000, 0.000, 15:40:45.936, 1587847245936
16, 163.27, -229.02, 127.71, 19.38, 0.000, 0.000, 0.000, 15:40:45.936, 1587847245936
17, 32.14, -352.46, 0.76, -21.09, 0.000, 0.000, 0.000, 15:40:45.939, 1587847245939
18, 170.34, -226.18, 130.41, 55.99, 0.000, 0.000, 0.000, 15:40:45.939, 1587847245939
19, 201.99, -191.47, 161.08, 37.87, 0.000, 0.000, 0.000, 15:40:45.951, 1587847245951
20, 25.52, -363.28, -5.48, -34.01, 0.000, 0.000, 0.000, 15:40:45.951, 1587847245951
21, 93.92, -288.03, 61.30, 28.69, 0.000, 0.000, 0.000, 15:40:45.966, 1587847245966
22, 245.21, -139.93, 211.48, 76.85, 0.000, 0.000, 0.000, 15:40:45.966, 1587847245966
23, 89.60, -291.56, 61.83, -13.63, 0.000, 0.000, 0.000, 15:40:45.970, 1587847245970
24, 11.43, -368.83, -14.73, -13.16, 0.000, 0.000, 0.000, 15:40:45.970, 1587847245970
25, 231.26, -152.99, 200.12, 75.44, 0.000, 0.000, 0.000, 15:40:45.979, 1587847245979
26, 165.89, -223.71, 131.69, 4.35, 0.000, 0.000, 0.000, 15:40:45.979, 1587847245979
27, -25.47, -408.50, -50.51, -54.28, 0.000, 0.000, 0.000, 15:40:45.997, 1587847245997
28, 159.39, -224.71, 130.84, 44.96, 0.000, 0.000, 0.000, 15:40:45.997, 1587847245997
29, 219.58, -163.35, 186.79, 30.64, 0.000, 0.000, 0.000, 15:40:46.000, 1587847246000
30, 1.19, -374.94, -24.77, -65.00, 0.000, 0.000, 0.000, 15:40:46.000, 1587847246000
31, 74.19, -308.94, 44.72, 14.45, 0.000, 0.000, 0.000, 15:40:46.011, 1587847246011
32, 281.75, -115.68, 242.07, 81.42, 0.000, 0.000, 0.000, 15:40:46.011, 1587847246011
33, 107.30, -291.10, 65.80, -17.90, 0.000, 0.000, 0.000, 15:40:46.025, 1587847246025
34, -4.54, -390.46, -36.37, -31.38, 0.000, 0.000, 0.000, 15:40:46.025, 1587847246025
35, 209.57, -186.63, 169.79, 56.18, 0.000, 0.000, 0.000, 15:40:46.026, 1587847246026
36, 192.45, -212.04, 144.33, 18.81, 0.000, 0.000, 0.000, 15:40:46.026, 1587847246026
37, -9.08, -405.41, -58.08, -46.35, 0.000, 0.000, 0.000, 15:40:46.040, 1587847246040
38, 151.63, -239.77, 112.44, 45.48, 0.000, 0.000, 0.000, 15:40:46.040, 1587847246040
39, 239.47, -165.94, 189.50, 23.77, 0.000, 0.000, 0.000, 15:40:46.056, 1587847246056
40, 8.65, -390.95, -49.09, -73.17, 0.000, 0.000, 0.000, 15:40:46.056, 1587847246056
41, 43.55, -351.52, -5.28, -7.08, 0.000, 0.000, 0.000, 15:40:46.058, 1587847246058
42, 238.83, -160.79, 187.29, 39.95, 0.000, 0.000, 0.000, 15:40:46.058, 1587847246058
43, 61.26, -330.53, 23.45, -41.75, 0.000, 0.000, 0.000, 15:40:46.070, 1587847246070
44, -11.01, -402.46, -51.11, -37.66, 0.000, 0.000, 0.000, 15:40:46.070, 1587847246070
45, 220.73, -184.07, 168.35, 56.92, 0.000, 0.000, 0.000, 15:40:46.086, 1587847246086
46, 160.61, -233.12, 112.81, -5.12, 0.000, 0.000, 0.000, 15:40:46.086, 1587847246086
47, -20.40, -419.34, -77.80, -62.38, 0.000, 0.000, 0.000, 15:40:46.092, 1587847246092
48, 164.71, -244.33, 100.23, 41.84, 0.000, 0.000, 0.000, 15:40:46.092, 1587847246092
49, 243.95, -170.41, 170.13, 35.01, 0.000, 0.000, 0.000, 15:40:46.116, 1587847246116
50, 7.89, -398.86, -43.56, -58.17, 0.000, 0.000, 0.000, 15:40:46.116, 1587847246116
51, 66.74, -328.86, 17.51, 5.59, 0.000, 0.000, 0.000, 15:40:46.118, 1587847246118
52, 261.79, -137.84, 209.04, 57.33, 0.000, 0.000, 0.000, 15:40:46.118, 1587847246118
53, 87.51, -309.67, 38.53, -40.07, 0.000, 0.000, 0.000, 15:40:46.119, 1587847246119
54, 10.65, -386.40, -39.56, -31.75, 0.000, 0.000, 0.000, 15:40:46.119, 1587847246119
55, 225.67, -173.38, 174.97, 67.46, 0.000, 0.000, 0.000, 15:40:46.129, 1587847246129
56, 175.28, -228.39, 123.13, -0.71, 0.000, 0.000, 0.000, 15:40:46.129, 1587847246129
57, -12.27, -410.31, -69.38, -55.54, 0.000, 0.000, 0.000, 15:40:46.145, 1587847246145
58, 157.65, -243.49, 104.75, 41.31, 0.000, 0.000, 0.000, 15:40:46.145, 1587847246145
59, 242.41, -153.06, 188.35, 32.49, 0.000, 0.000, 0.000, 15:40:46.147, 1587847246147
60, 7.56, -381.52, -41.40, -56.64, 0.000, 0.000, 0.000, 15:40:46.147, 1587847246147
61, 77.42, -322.02, 26.37, 9.01, 0.000, 0.000, 0.000, 15:40:46.163, 1587847246163
62, 240.93, -165.21, 179.14, 52.24, 0.000, 0.000, 0.000, 15:40:46.163, 1587847246163
63, 83.47, -321.84, 30.84, -35.06, 0.000, 0.000, 0.000, 15:40:46.176, 1587847246176
64, 31.26, -371.83, -20.51, -23.52, 0.000, 0.000, 0.000, 15:40:46.176, 1587847246176
65, 197.77, -204.10, 141.80, 48.75, 0.000, 0.000, 0.000, 15:40:46.177, 1587847246177
66, 158.25, -242.21, 104.00, -9.42, 0.000, 0.000, 0.000, 15:40:46.177, 1587847246177
67, 24.58, -375.34, -24.85, -41.45, 0.000, 0.000, 0.000, 15:40:46.190, 1587847246190
68, 148.64, -251.55, 102.27, 37.82, 0.000, 0.000, 0.000, 15:40:46.190, 1587847246190
69, 193.07, -201.78, 143.89, 25.48, 0.000, 0.000, 0.000, 15:40:46.210, 1587847246210
70, 34.93, -355.51, -7.04, -42.75, 0.000, 0.000, 0.000, 15:40:46.210, 1587847246210
71, 76.85, -317.03, 39.04, 4.15, 0.000, 0.000, 0.000, 15:40:46.213, 1587847246213
72, 220.81, -174.33, 174.82, 47.35, 0.000, 0.000, 0.000, 15:40:46.213, 1587847246213
73, 88.53, -301.69, 26.24, -31.75, 0.000, 0.000, 0.000, 15:40:46.220, 1587847246220
74, 33.09, -359.63, -26.43, -23.15, 0.000, 0.000, 0.000, 15:40:46.220, 1587847246220
75, 215.30, -179.62, 181.51, 58.91, 0.000, 0.000, 0.000, 15:40:46.236, 1587847246236
76, 165.64, -228.49, 127.58, 0.98, 0.000, 0.000, 0.000, 15:40:46.236, 1587847246236
77, 11.39, -374.64, -23.14, -39.25, 0.000, 0.000, 0.000, 15:40:46.238, 1587847246238
78, 162.06, -237.61, 115.82, 41.12, 0.000, 0.000, 0.000, 15:40:46.238, 1587847246238
79, 226.22, -181.00, 162.12, 37.09, 0.000, 0.000, 0.000, 15:40:46.250, 1587847246250
80, 26.85, -350.49, -21.08, -34.53, 0.000, 0.000, 0.000, 15:40:46.250, 1587847246250
81, 51.33, -306.56, 23.97, 24.25, 0.000, 0.000, 0.000, 15:40:46.265, 1587847246265
82, 227.39, -143.40, 208.96, 78.71, 0.000, 0.000, 0.000, 15:40:46.265, 1587847246265
83, 114.64, -269.41, 53.37, -8.76, 0.000, 0.000, 0.000, 15:40:46.265, 1587847246265
84, -24.44, -343.63, 24.09, -1.71, 0.000, 0.000, 0.000, 15:40:46.265, 1587847246265
85, 157.94, -170.84, 200.84, 91.33, 0.000, 0.000, 0.000, 15:40:46.279, 1587847246279
86, 48.60, -232.07, 53.86, 32.58, 0.000, 0.000, 0.000, 15:40:46.279, 1587847246279
87, -24.39, -445.86, -84.27, -22.17, 0.000, 0.000, 0.000, 15:40:46.295, 1587847246295
88, 362.09, -138.53, 251.64, 68.13, 0.000, 0.000, 0.000, 15:40:46.295, 1587847246295
89, 326.63, -193.49, 239.58, 59.45, 0.000, 0.000, 0.000, 15:40:46.296, 1587847246296
90, 95.53, -300.96, 79.81, -32.36, 0.000, 0.000, 0.000, 15:40:46.296, 1587847246296
91, 90.99, -280.52, 110.58, 22.66, 0.000, 0.000, 0.000, 15:40:46.309, 1587847246309
92, 221.02, -255.60, 181.24, 62.98, 0.000, 0.000, 0.000, 15:40:46.309, 1587847246309
93, 140.01, -292.55, 117.69, -27.19, 0.000, 0.000, 0.000, 15:40:46.325, 1587847246325
94, -112.20, -504.73, -172.92, -19.13, 0.000, 0.000, 0.000, 15:40:46.325, 1587847246325
95, 315.43, -82.02, 282.26, 60.35, 0.000, 0.000, 0.000, 15:40:46.326, 1587847246326
96, 238.86, -248.60, 200.47, 5.65, 0.000, 0.000, 0.000, 15:40:46.326, 1587847246326
97, 40.71, -448.17, -58.60, -46.52, 0.000, 0.000, 0.000, 15:40:46.339, 1587847246339
98, 218.41, -268.10, 218.76, 48.88, 0.000, 0.000, 0.000, 15:40:46.339, 1587847246339
99, 201.92, -253.87, -12.90, 35.43, 0.000, 0.000, 0.000, 15:40:46.361, 1587847246361
100, 86.44, -333.61, 43.89, -51.09, 0.000, 0.000, 0.000, 15:40:46.361, 1587847246361
101, -96.20, -473.13, 162.14, 5.13, 0.000, 0.000, 0.000, 15:40:46.362, 1587847246362
102, 361.00, -188.41, 137.92, 51.85, 0.000, 0.000, 0.000, 15:40:46.362, 1587847246362
103, 222.90, -193.52, 285.99, -36.19, 0.000, 0.000, 0.000, 15:40:46.370, 1587847246370
104, -9.94, -455.74, -104.43, -31.04, 0.000, 0.000, 0.000, 15:40:46.370, 1587847246370
105, 197.31, -210.16, 19.52, 53.53, 0.000, 0.000, 0.000, 15:40:46.387, 1587847246387
106, 277.04, -132.43, 221.09, -6.20, 0.000, 0.000, 0.000, 15:40:46.387, 1587847246387
107, -26.64, -328.17, 156.37, -44.69, 0.000, 0.000, 0.000, 15:40:46.390, 1587847246390
108, -3.58, -306.90, 141.81, 45.99, 0.000, 0.000, 0.000, 15:40:46.390, 1587847246390
109, 169.07, -138.25, 187.55, 35.17, 0.000, 0.000, 0.000, 15:40:46.400, 1587847246400
110, 117.91, -327.83, -175.88, -41.93, 0.000, 0.000, 0.000, 15:40:46.400, 1587847246400
111, 148.47, -191.30, 301.99, 13.33, 0.000, 0.000, 0.000, 15:40:46.415, 1587847246415
112, 18.12, -128.47, 284.35, 58.13, 0.000, 0.000, 0.000, 15:40:46.415, 1587847246415
113, 135.38, -210.64, -31.93, -31.51, 0.000, 0.000, 0.000, 15:40:46.416, 1587847246416
114, -99.64, -375.18, 22.17, -23.69, 0.000, 0.000, 0.000, 15:40:46.416, 1587847246416
115, 377.79, -13.89, 246.52, 56.27, 0.000, 0.000, 0.000, 15:40:46.430, 1587847246430
116, 168.88, -178.26, 265.19, 1.99, 0.000, 0.000, 0.000, 15:40:46.430, 1587847246430
117, -29.99, -397.40, -177.20, -46.56, 0.000, 0.000, 0.000, 15:40:46.445, 1587847246445
118, 212.38, 74.20, 203.46, 47.02, 0.000, 0.000, 0.000, 15:40:46.445, 1587847246445
119, -46.88, 7.25, 252.57, 40.11, 0.000, 0.000, 0.000, 15:40:46.446, 1587847246446
120, -4.36, -197.89, -19.44, -35.85, 0.000, 0.000, 0.000, 15:40:46.446, 1587847246446
121, 201.00, -135.62, 280.27, 20.89, 0.000, 0.000, 0.000, 15:40:46.475, 1587847246475
122, 186.54, -7.40, 262.83, 54.60, 0.000, 0.000, 0.000, 15:40:46.475, 1587847246475
123, -85.54, -171.83, 55.65, -27.34, 0.000, 0.000, 0.000, 15:40:46.477, 1587847246477
124, -113.13, -237.79, -294.88, -21.41, 0.000, 0.000, 0.000, 15:40:46.477, 1587847246477
125, 141.14, 100.17, 459.55, 52.34, 0.000, 0.000, 0.000, 15:40:46.478, 1587847246478
126, 169.06, 69.46, 178.20, 0.80, 0.000, 0.000, 0.000, 15:40:46.478, 1587847246478
127, 14.26, -139.95, -159.16, -43.82, 0.000, 0.000, 0.000, 15:40:46.489, 1587847246489
128, -67.85, -55.25, 343.89, 42.99, 0.000, 0.000, 0.000, 15:40:46.489, 1587847246489
129, 48.04, 104.93, 256.93, 35.46, 0.000, 0.000, 0.000, 15:40:46.505, 1587847246505
130, -5.41, -79.75, -1.55, -37.23, 0.000, 0.000, 0.000, 15:40:46.505, 1587847246505
131, -156.75, 34.97, 89.85, 12.36, 0.000, 0.000, 0.000, 15:40:46.506, 1587847246506
132, 226.01, 166.62, 69.96, 53.14, 0.000, 0.000, 0.000, 15:40:46.506, 1587847246506
133, 12.16, 57.06, 127.58, -33.30, 0.000, 0.000, 0.000, 15:40:46.519, 1587847246519
134, -136.31, -8.79, -12.19, -18.07, 0.000, 0.000, 0.000, 15:40:46.519, 1587847246519
135, -30.12, 109.21, 201.62, 53.73, 0.000, 0.000, 0.000, 15:40:46.535, 1587847246535
136, 43.19, 131.30, 47.62, -2.70, 0.000, 0.000, 0.000, 15:40:46.535, 1587847246535
137, -73.65, 79.08, 55.63, -45.67, 0.000, 0.000, 0.000, 15:40:46.536, 1587847246536
138, 41.00, 172.99, 79.58, 41.81, 0.000, 0.000, 0.000, 15:40:46.536, 1587847246536
139, 39.21, 240.76, 253.17, 27.10, 0.000, 0.000, 0.000, 15:40:46.549, 1587847246549
140, -141.17, 32.22, -93.38, -46.84, 0.000, 0.000, 0.000, 15:40:46.549, 1587847246549
141, -238.50, 157.31, 128.63, 8.66, 0.000, 0.000, 0.000, 15:40:46.564, 1587847246564
142, 162.98, 311.68, 179.94, 54.16, 0.000, 0.000, 0.000, 15:40:46.564, 1587847246564
143, -58.74, 234.99, 113.62, -21.75, 0.000, 0.000, 0.000, 15:40:46.565, 1587847246565
144, -206.59, 63.42, -56.14, -25.56, 0.000, 0.000, 0.000, 15:40:46.565, 1587847246565
145, 67.82, 356.38, 270.65, 55.41, 0.000, 0.000, 0.000, 15:40:46.579, 1587847246579
146, -117.96, 289.78, 37.12, 1.59, 0.000, 0.000, 0.000, 15:40:46.579, 1587847246579
147, -180.20, 152.63, 21.99, -41.90, 0.000, 0.000, 0.000, 15:40:46.596, 1587847246596
148, -82.45, 276.56, -7.61, 48.86, 0.000, 0.000, 0.000, 15:40:46.596, 1587847246596
149, 95.21, 326.01, 186.37, 31.24, 0.000, 0.000, 0.000, 15:40:46.597, 1587847246597
150, -138.13, 309.87, 95.26, -37.22, 0.000, 0.000, 0.000, 15:40:46.597, 1587847246597
151, -229.68, 288.68, -29.38, 19.48, 0.000, 0.000, 0.000, 15:40:46.609, 1587847246609
152, 4.99, 412.60, 188.07, 57.44, 0.000, 0.000, 0.000, 15:40:46.609, 1587847246609
153, -137.42, 325.55, 105.65, -24.58, 0.000, 0.000, 0.000, 15:40:46.625, 1587847246625
154, -269.08, 257.38, -2.58, -15.46, 0.000, 0.000, 0.000, 15:40:46.625, 1587847246625
155, -7.03, 388.66, -34.24, 61.94, 0.000, 0.000, 0.000, 15:40:46.630, 1587847246630
156, -4.64, 435.87, 239.68, 0.44, 0.000, 0.000, 0.000, 15:40:46.630, 1587847246630
157, -284.74, 261.74, -33.36, -45.40, 0.000, 0.000, 0.000, 15:40:46.639, 1587847246639
158, -151.42, 374.32, -41.69, 43.56, 0.000, 0.000, 0.000, 15:40:46.639, 1587847246639
159, -7.18, 537.57, 326.62, 31.62, 0.000, 0.000, 0.000, 15:40:46.671, 1587847246671
160, -364.98, 319.66, -145.95, -48.13, 0.000, 0.000, 0.000, 15:40:46.671, 1587847246671
161, -80.87, 280.63, 0.40, 6.26, 0.000, 0.000, 0.000, 15:40:46.672, 1587847246672
162, -13.55, 564.34, 330.64, 56.46, 0.000, 0.000, 0.000, 15:40:46.672, 1587847246672
163, -162.54, 395.15, 0.26, -24.16, 0.000, 0.000, 0.000, 15:40:46.672, 1587847246672
164, -276.49, 296.20, -135.26, -21.08, 0.000, 0.000, 0.000, 15:40:46.672, 1587847246672
165, -204.08, 473.40, 227.41, 59.34, 0.000, 0.000, 0.000, 15:40:46.673, 1587847246673
166, -71.99, 464.87, 73.97, 5.83, 0.000, 0.000, 0.000, 15:40:46.673, 1587847246673
167, -183.58, 311.56, -12.19, -40.11, 0.000, 0.000, 0.000, 15:40:46.685, 1587847246685
168, -77.35, 498.96, 93.40, 48.55, 0.000, 0.000, 0.000, 15:40:46.685, 1587847246685
169, -6.08, 526.62, -111.99, 37.85, 0.000, 0.000, 0.000, 15:40:46.699, 1587847246699
170, -301.91, 293.38, 105.73, -49.14, 0.000, 0.000, 0.000, 15:40:46.699, 1587847246699
171, -384.31, 457.52, 145.00, 18.30, 0.000, 0.000, 0.000, 15:40:46.714, 1587847246714
172, -33.75, 535.15, 103.77, 62.90, 0.000, 0.000, 0.000, 15:40:46.714, 1587847246714
173, -197.97, 355.91, -90.42, -20.06, 0.000, 0.000, 0.000, 15:40:46.715, 1587847246715
174, -132.96, 406.63, 83.64, -15.96, 0.000, 0.000, 0.000, 15:40:46.715, 1587847246715
175, -53.90, 518.31, 86.69, 63.38, 0.000, 0.000, 0.000, 15:40:46.729, 1587847246729
176, -230.00, 526.32, 209.41, 6.64, 0.000, 0.000, 0.000, 15:40:46.729, 1587847246729
177, -259.60, 301.70, -70.09, -36.89, 0.000, 0.000, 0.000, 15:40:46.744, 1587847246744
178, -349.17, 495.26, 92.94, 46.87, 0.000, 0.000, 0.000, 15:40:46.744, 1587847246744
179, 108.51, 596.71, 120.51, 50.10, 0.000, 0.000, 0.000, 15:40:46.745, 1587847246745
180, -145.95, 390.05, -74.19, -34.82, 0.000, 0.000, 0.000, 15:40:46.745, 1587847246745
181, -248.77, 328.14, -11.41, 29.65, 0.000, 0.000, 0.000, 15:40:46.759, 1587847246759
182, -93.52, 581.48, 261.22, 66.04, 0.000, 0.000, 0.000, 15:40:46.759, 1587847246759
183, -298.69, 332.56, -85.63, -25.74, 0.000, 0.000, 0.000, 15:40:46.775, 1587847246775
184, -162.61, 458.01, 68.31, -17.14, 0.000, 0.000, 0.000, 15:40:46.775, 1587847246775
185, -96.27, 520.10, 136.59, 63.88, 0.000, 0.000, 0.000, 15:40:46.776, 1587847246776
186, -142.13, 438.08, 16.78, 4.73, 0.000, 0.000, 0.000, 15:40:46.776, 1587847246776
187, -325.60, 289.00, -14.57, -36.47, 0.000, 0.000, 0.000, 15:40:46.806, 1587847246806
188, -142.16, 389.89, -22.62, 41.99, 0.000, 0.000, 0.000, 15:40:46.806, 1587847246806
189, -79.88, 558.89, 189.76, 30.75, 0.000, 0.000, 0.000, 15:40:46.808, 1587847246808
190, -334.25, 286.45, 53.23, -43.16, 0.000, 0.000, 0.000, 15:40:46.808, 1587847246808
191, -182.68, 404.98, 6.12, 10.23, 0.000, 0.000, 0.000, 15:40:46.808, 1587847246808
192, -105.92, 549.48, 112.14, 49.33, 0.000, 0.000, 0.000, 15:40:46.808, 1587847246808
193, -113.21, 384.58, 24.26, -26.98, 0.000, 0.000, 0.000, 15:40:46.819, 1587847246819
194, -249.18, 299.46, -53.80, -20.83, 0.000, 0.000, 0.000, 15:40:46.819, 1587847246819
195, -118.30, 466.89, 159.72, 56.24, 0.000, 0.000, 0.000, 15:40:46.835, 1587847246835
196, -104.52, 493.85, -5.70, 1.79, 0.000, 0.000, 0.000, 15:40:46.835, 1587847246835
197, -233.08, 299.87, -18.96, -40.01, 0.000, 0.000, 0.000, 15:40:46.836, 1587847246836
198, -295.72, 391.61, 132.90, 44.04, 0.000, 0.000, 0.000, 15:40:46.836, 1587847246836
199, 3.77, 532.66, 177.89, 32.74, 0.000, 0.000, 0.000, 15:40:46.849, 1587847246849
200, -295.38, 269.93, -128.50, -42.90, 0.000, 0.000, 0.000, 15:40:46.849, 1587847246849
0, -286.98, 327.25, 62.86, 11.11, 0.000, 0.000, 0.000, 15:40:46.852, 1587847246852
1, 59.22, 473.46, 34.06, 52.94, 0.000, 0.000, 0.000, 15:40:46.864, 1587847246864
2, -186.93, 328.52, 68.98, -26.62, 0.000, 0.000, 0.000, 15:40:46.864, 1587847246864
3, -450.41, 214.28, -142.66, -19.08, 0.000, 0.000, 0.000, 15:40:46.879, 1587847246879
4, 88.83, 540.83, 284.25, 56.49, 0.000, 0.000, 0.000, 15:40:46.879, 1587847246879
5, -187.57, 361.78, 43.68, 2.91, 0.000, 0.000, 0.000, 15:40:46.880, 1587847246880
6, -330.40, 146.61, -99.33, -39.71, 0.000, 0.000, 0.000, 15:40:46.880, 1587847246880
7, 60.05, 500.82, 222.87, 41.87, 0.000, 0.000, 0.000, 15:40:46.895, 1587847246895
8, -20.16, 440.39, 114.83, 34.70, 0.000, 0.000, 0.000, 15:40:46.895, 1587847246895
9, -334.75, 224.17, 1.22, -42.57, 0.000, 0.000, 0.000, 15:40:46.909, 1587847246909
10, -155.59, 305.87, 62.54, 8.79, 0.000, 0.000, 0.000, 15:40:46.909, 1587847246909
11, -37.07, 460.43, 184.81, 53.09, 0.000, 0.000, 0.000, 15:40:46.911, 1587847246911
12, -371.95, 264.04, -8.52, -24.19, 0.000, 0.000, 0.000, 15:40:46.911, 1587847246911
13, -245.06, 245.14, -48.99, -16.75, 0.000, 0.000, 0.000, 15:40:46.927, 1587847246927
14, 80.50, 408.89, 59.65, 56.03, 0.000, 0.000, 0.000, 15:40:46.927, 1587847246927
15, -86.75, 281.26, 103.95, -0.87, 0.000, 0.000, 0.000, 15:40:46.940, 1587847246940
16, -249.39, 195.58, 51.27, -35.76, 0.000, 0.000, 0.000, 15:40:46.940, 1587847246940
17, -132.33, 305.12, 69.98, 42.43, 0.000, 0.000, 0.000, 15:40:46.941, 1587847246941
18, -38.61, 417.25, 227.05, 34.31, 0.000, 0.000, 0.000, 15:40:46.941, 1587847246941
19, -238.43, 207.45, -20.18, -43.66, 0.000, 0.000, 0.000, 15:40:46.955, 1587847246955
20, -211.01, 241.54, -10.76, 13.63, 0.000, 0.000, 0.000, 15:40:46.955, 1587847246955
21, -28.63, 374.01, 203.24, 57.34, 0.000, 0.000, 0.000, 15:40:46.971, 1587847246971
22, -42.33, 297.97, 92.38, -25.94, 0.000, 0.000, 0.000, 15:40:46.971, 1587847246971
23, -183.38, 153.62, -106.51, -16.52, 0.000, 0.000, 0.000, 15:40:46.973, 1587847246973
24, -71.82, 284.93, 155.99, 51.26, 0.000, 0.000, 0.000, 15:40:46.973, 1587847246973
25, -88.61, 332.29, 197.67, 7.30, 0.000, 0.000, 0.000, 15:40:46.984, 1587847246984
26, -193.16, 126.69, -89.37, -33.02, 0.000, 0.000, 0.000, 15:40:46.984, 1587847246984
27, -141.78, 259.84, 97.03, 43.88, 0.000, 0.000, 0.000, 15:40:47.000, 1587847247000
28, -130.65, 269.23, 172.51, 32.12, 0.000, 0.000, 0.000, 15:40:47.000, 1587847247000
29, -83.00, 217.21, 18.38, -35.22, 0.000, 0.000, 0.000, 15:40:47.003, 1587847247003
30, -137.39, 186.01, 88.25, 16.49, 0.000, 0.000, 0.000, 15:40:47.003, 1587847247003
31, 61.87, 323.44, 197.25, 55.94, 0.000, 0.000, 0.000, 15:40:47.014, 1587847247014
32, -107.67, 196.49, 66.95, -26.68, 0.000, 0.000, 0.000, 15:40:47.014, 1587847247014
33, -192.50, 109.56, -51.28, -11.77, 0.000, 0.000, 0.000, 15:40:47.029, 1587847247029
34, -55.21, 218.12, 111.19, 62.79, 0.000, 0.000, 0.000, 15:40:47.029, 1587847247029
35, -25.87, 260.25, 102.13, 5.77, 0.000, 0.000, 0.000, 15:40:47.030, 1587847247030
36, -180.99, 118.05, 69.28, -33.16, 0.000, 0.000, 0.000, 15:40:47.030, 1587847247030
37, -24.03, 245.12, 127.74, 44.17, 0.000, 0.000, 0.000, 15:40:47.047, 1587847247047
38, 16.20, 276.65, 176.10, 33.20, 0.000, 0.000, 0.000, 15:40:47.047, 1587847247047
39, -151.72, 85.37, 3.60, -39.62, 0.000, 0.000, 0.000, 15:40:47.059, 1587847247059
40, -109.34, 127.36, 38.02, 18.13, 0.000, 0.000, 0.000, 15:40:47.059, 1587847247059
41, 39.02, 258.92, 182.06, 55.17, 0.000, 0.000, 0.000, 15:40:47.060, 1587847247060
42, -76.63, 126.55, 65.62, -18.53, 0.000, 0.000, 0.000, 15:40:47.060, 1587847247060
43, -139.85, 54.14, 3.85, -14.87, 0.000, 0.000, 0.000, 15:40:47.076, 1587847247076
44, 53.78, 221.28, 172.02, 56.81, 0.000, 0.000, 0.000, 15:40:47.076, 1587847247076
45, -6.66, 151.43, 124.31, 9.17, 0.000, 0.000, 0.000, 15:40:47.090, 1587847247090
46, -130.26, 8.66, -6.75, -33.44, 0.000, 0.000, 0.000, 15:40:47.090, 1587847247090
47, 17.23, 122.37, 121.45, 42.34, 0.000, 0.000, 0.000, 15:40:47.093, 1587847247093
48, 84.69, 153.48, 174.26, 36.94, 0.000, 0.000, 0.000, 15:40:47.093, 1587847247093
49, -82.10, -16.97, 11.27, -33.34, 0.000, 0.000, 0.000, 15:40:47.106, 1587847247106
50, -38.11, -1.38, 43.09, 17.55, 0.000, 0.000, 0.000, 15:40:47.106, 1587847247106
51, 125.31, 115.68, 193.62, 56.94, 0.000, 0.000, 0.000, 15:40:47.119, 1587847247119
52, 19.39, -25.83, 87.81, -19.86, 0.000, 0.000, 0.000, 15:40:47.119, 1587847247119
53, -58.31, -98.35, -4.30, -4.48, 0.000, 0.000, 0.000, 15:40:47.120, 1587847247120
54, 120.20, 77.17, 175.58, 58.46, 0.000, 0.000, 0.000, 15:40:47.120, 1587847247120
55, 81.38, 13.21, 123.07, 7.00, 0.000, 0.000, 0.000, 15:40:47.134, 1587847247134
56, -58.35, -139.90, -24.84, -28.97, 0.000, 0.000, 0.000, 15:40:47.134, 1587847247134
57, 101.31, -24.68, 124.64, 48.43, 0.000, 0.000, 0.000, 15:40:47.149, 1587847247149
58, 153.90, 29.35, 172.05, 37.53, 0.000, 0.000, 0.000, 15:40:47.149, 1587847247149
59, -2.09, -147.63, 2.20, -32.69, 0.000, 0.000, 0.000, 15:40:47.150, 1587847247150
60, 42.61, -105.55, 59.48, 20.38, 0.000, 0.000, 0.000, 15:40:47.150, 1587847247150
61, 179.16, 22.02, 179.81, 56.26, 0.000, 0.000, 0.000, 15:40:47.174, 1587847247174
62, 66.97, -111.15, 64.53, -21.68, 0.000, 0.000, 0.000, 15:40:47.174, 1587847247174
63, 9.79, -179.22, 5.85, -7.95, 0.000, 0.000, 0.000, 15:40:47.179, 1587847247179
64, 182.66, -27.01, 168.78, 59.58, 0.000, 0.000, 0.000, 15:40:47.179, 1587847247179
65, 144.56, -68.00, 126.44, 12.79, 0.000, 0.000, 0.000, 15:40:47.180, 1587847247180
66, 20.53, -206.37, -17.13, -30.12, 0.000, 0.000, 0.000, 15:40:47.180, 1587847247180
67, 158.72, -73.22, 118.25, 44.23, 0.000, 0.000, 0.000, 15:40:47.194, 1587847247194
68, 215.43, -27.45, 171.69, 36.75, 0.000, 0.000, 0.000, 15:40:47.194, 1587847247194
69, 59.63, -184.84, 9.29, -29.48, 0.000, 0.000, 0.000, 15:40:47.226, 1587847247226
70, 118.46, -145.27, 50.82, 17.58, 0.000, 0.000, 0.000, 15:40:47.226, 1587847247226
71, 263.54, -8.42, 188.82, 56.88, 0.000, 0.000, 0.000, 15:40:47.227, 1587847247227
72, 125.66, -146.79, 44.14, -18.71, 0.000, 0.000, 0.000, 15:40:47.227, 1587847247227
73, 70.87, -215.12, -25.86, -7.58, 0.000, 0.000, 0.000, 15:40:47.228, 1587847247228
74, 229.30, -77.18, 129.01, 57.56, 0.000, 0.000, 0.000, 15:40:47.228, 1587847247228
75, 190.68, -118.91, 93.78, 9.68, 0.000, 0.000, 0.000, 15:40:47.229, 1587847247229
76, 42.98, -272.09, -52.93, -28.05, 0.000, 0.000, 0.000, 15:40:47.229, 1587847247229
77, 172.27, -149.87, 75.36, 41.05, 0.000, 0.000, 0.000, 15:40:47.239, 1587847247239
78, 230.79, -114.65, 121.86, 38.46, 0.000, 0.000, 0.000, 15:40:47.239, 1587847247239
79, 87.51, -263.75, -24.38, -27.45, 0.000, 0.000, 0.000, 15:40:47.254, 1587847247254
80, 115.95, -247.40, 10.78, 18.16, 0.000, 0.000, 0.000, 15:40:47.254, 1587847247254
81, 248.54, -132.58, 143.25, 53.18, 0.000, 0.000, 0.000, 15:40:47.281, 1587847247281
82, 111.43, -268.37, 5.97, -17.21, 0.000, 0.000, 0.000, 15:40:47.281, 1587847247281
83, 59.53, -321.90, -40.58, -14.18, 0.000, 0.000, 0.000, 15:40:47.282, 1587847247282
84, 225.46, -176.09, 120.87, 50.00, 0.000, 0.000, 0.000, 15:40:47.282, 1587847247282
85, 170.75, -235.93, 78.73, 5.64, 0.000, 0.000, 0.000, 15:40:47.286, 1587847247286
86, 43.04, -362.00, -44.44, -27.15, 0.000, 0.000, 0.000, 15:40:47.286, 1587847247286
87, 171.99, -245.42, 72.06, 39.87, 0.000, 0.000, 0.000, 15:40:47.304, 1587847247304
88, 213.41, -212.64, 106.52, 34.01, 0.000, 0.000, 0.000, 15:40:47.304, 1587847247304
89, 72.81, -362.29, -18.36, -31.51, 0.000, 0.000, 0.000, 15:40:47.307, 1587847247307
90, 104.63, -333.25, 15.54, 11.26, 0.000, 0.000, 0.000, 15:40:47.307, 1587847247307
91, 234.75, -214.83, 140.90, 49.20, 0.000, 0.000, 0.000, 15:40:47.314, 1587847247314
92, 131.11, -333.12, 32.25, -17.33, 0.000, 0.000, 0.000, 15:40:47.314, 1587847247314
93, 80.15, -386.33, -25.53, -10.74, 0.000, 0.000, 0.000, 15:40:47.330, 1587847247330
94, 217.45, -252.84, 118.16, 51.32, 0.000, 0.000, 0.000, 15:40:47.330, 1587847247330
95, 194.04, -284.06, 102.38, 6.77, 0.000, 0.000, 0.000, 15:40:47.333, 1587847247333
96, 58.27, -423.69, -38.74, -18.12, 0.000, 0.000, 0.000, 15:40:47.333, 1587847247333
97, 183.33, -315.33, 75.63, 44.14, 0.000, 0.000, 0.000, 15:40:47.344, 1587847247344
98, 241.92, -263.96, 122.88, 34.93, 0.000, 0.000, 0.000, 15:40:47.344, 1587847247344
99, 96.49, -400.14, -7.60, -23.44, 0.000, 0.000, 0.000, 15:40:47.359, 1587847247359
100, 135.88, -365.92, 33.68, 17.50, 0.000, 0.000, 0.000, 15:40:47.359, 1587847247359
101, 254.46, -265.30, 137.24, 46.22, 0.000, 0.000, 0.000, 15:40:47.360, 1587847247360
102, 144.33, -376.39, 32.30, -14.86, 0.000, 0.000, 0.000, 15:40:47.360, 1587847247360
103, 98.68, -430.14, -16.94, -0.01, 0.000, 0.000, 0.000, 15:40:47.374, 1587847247374
104, 237.07, -298.16, 115.20, 45.72, 0.000, 0.000, 0.000, 15:40:47.374, 1587847247374
105, 193.90, -344.93, 78.70, 6.35, 0.000, 0.000, 0.000, 15:40:47.390, 1587847247390
106, 89.10, -452.05, -20.78, -17.68, 0.000, 0.000, 0.000, 15:40:47.390, 1587847247390
107, 205.68, -341.53, 92.69, 37.92, 0.000, 0.000, 0.000, 15:40:47.392, 1587847247392
108, 232.68, -320.08, 118.58, 23.89, 0.000, 0.000, 0.000, 15:40:47.392, 1587847247392
109, 99.89, -454.02, -19.37, -22.30, 0.000, 0.000, 0.000, 15:40:47.404, 1587847247404
110, 149.82, -405.90, 32.55, 21.89, 0.000, 0.000, 0.000, 15:40:47.404, 1587847247404
111, 252.24, -315.07, 135.82, 41.72, 0.000, 0.000, 0.000, 15:40:47.419, 1587847247419
112, 157.92, -406.25, 34.46, -10.97, 0.000, 0.000, 0.000, 15:40:47.419, 1587847247419
113, 122.10, -447.35, -4.12, -4.32, 0.000, 0.000, 0.000, 15:40:47.420, 1587847247420
114, 234.68, -337.50, 109.84, 45.07, 0.000, 0.000, 0.000, 15:40:47.420, 1587847247420
115, 214.96, -364.35, 82.38, 5.59, 0.000, 0.000, 0.000, 15:40:47.437, 1587847247437
116, 97.32, -477.25, -28.46, -19.54, 0.000, 0.000, 0.000, 15:40:47.437, 1587847247437
117, 204.29, -376.88, 81.57, 35.47, 0.000, 0.000, 0.000, 15:40:47.450, 1587847247450
118, 238.19, -350.55, 116.53, 27.12, 0.000, 0.000, 0.000, 15:40:47.450, 1587847247450
119, 120.74, -461.66, 5.63, -18.24, 0.000, 0.000, 0.000, 15:40:47.451, 1587847247451
120, 158.38, -427.39, 45.63, 18.10, 0.000, 0.000, 0.000, 15:40:47.451, 1587847247451
121, 256.74, -345.85, 121.94, 36.82, 0.000, 0.000, 0.000, 15:40:47.465, 1587847247465
122, 164.97, -433.75, 35.77, -15.31, 0.000, 0.000, 0.000, 15:40:47.465, 1587847247465
123, 135.40, -462.11, 7.63, -0.14, 0.000, 0.000, 0.000, 15:40:47.480, 1587847247480
124, 249.98, -354.29, 118.71, 39.38, 0.000, 0.000, 0.000, 15:40:47.480, 1587847247480
125, 212.61, -390.24, 85.11, 6.31, 0.000, 0.000, 0.000, 15:40:47.480, 1587847247480
126, 119.85, -484.65, -5.28, -16.23, 0.000, 0.000, 0.000, 15:40:47.480, 1587847247480
127, 217.52, -387.23, 91.65, 36.11, 0.000, 0.000, 0.000, 15:40:47.495, 1587847247495
128, 243.54, -374.00, 106.07, 28.01, 0.000, 0.000, 0.000, 15:40:47.495, 1587847247495
129, 133.59, -470.36, 4.05, -14.37, 0.000, 0.000, 0.000, 15:40:47.509, 1587847247509
130, 184.88, -435.50, 46.73, 22.72, 0.000, 0.000, 0.000, 15:40:47.509, 1587847247509
131, 275.70, -337.43, 146.62, 35.25, 0.000, 0.000, 0.000, 15:40:47.510, 1587847247510
132, 167.75, -448.84, 38.47, -9.09, 0.000, 0.000, 0.000, 15:40:47.510, 1587847247510
133, 143.50, -473.15, 8.08, 1.32, 0.000, 0.000, 0.000, 15:40:47.524, 1587847247524
134, 248.84, -372.43, 118.43, 44.26, 0.000, 0.000, 0.000, 15:40:47.524, 1587847247524
135, 225.57, -402.48, 87.49, 7.32, 0.000, 0.000, 0.000, 15:40:47.539, 1587847247539
136, 128.79, -487.59, 2.01, -15.02, 0.000, 0.000, 0.000, 15:40:47.539, 1587847247539
137, 219.10, -403.73, 78.35, 35.83, 0.000, 0.000, 0.000, 15:40:47.545, 1587847247545
138, 249.82, -376.38, 113.87, 25.25, 0.000, 0.000, 0.000, 15:40:47.545, 1587847247545
139, 141.01, -479.71, 20.56, -13.71, 0.000, 0.000, 0.000, 15:40:47.554, 1587847247554
140, 170.07, -454.92, 43.00, 20.85, 0.000, 0.000, 0.000, 15:40:47.554, 1587847247554
141, 265.37, -357.49, 140.92, 43.85, 0.000, 0.000, 0.000, 15:40:47.570, 1587847247570
142, 175.42, -446.67, 53.53, -8.19, 0.000, 0.000, 0.000, 15:40:47.570, 1587847247570
143, 132.47, -491.30, 9.04, 2.91, 0.000, 0.000, 0.000, 15:40:47.570, 1587847247570
144, 245.73, -384.10, 115.54, 38.73, 0.000, 0.000, 0.000, 15:40:47.570, 1587847247570
145, 213.46, -412.24, 92.02, 6.25, 0.000, 0.000, 0.000, 15:40:47.584, 1587847247584
146, 131.40, -495.48, 2.42, -5.63, 0.000, 0.000, 0.000, 15:40:47.584, 1587847247584
147, 218.96, -411.91, 99.05, 36.35, 0.000, 0.000, 0.000, 15:40:47.600, 1587847247600
148, 255.15, -379.03, 125.72, 20.89, 0.000, 0.000, 0.000, 15:40:47.600, 1587847247600
149, 147.78, -479.07, 17.30, -14.40, 0.000, 0.000, 0.000, 15:40:47.607, 1587847247607
150, 177.86, -447.52, 53.06, 20.67, 0.000, 0.000, 0.000, 15:40:47.607, 1587847247607
151, 259.77, -373.43, 131.39, 41.42, 0.000, 0.000, 0.000, 15:40:47.614, 1587847247614
152, 174.06, -454.13, 47.71, -6.50, 0.000, 0.000, 0.000, 15:40:47.614, 1587847247614
153, 153.15, -469.52, 30.12, 1.80, 0.000, 0.000, 0.000, 15:40:47.630, 1587847247630
154, 242.66, -377.93, 121.36, 41.93, 0.000, 0.000, 0.000, 15:40:47.630, 1587847247630
155, 215.65, -406.03, 96.20, 6.93, 0.000, 0.000, 0.000, 15:40:47.630, 1587847247630
156, 134.33, -493.98, 13.78, -15.81, 0.000, 0.000, 0.000, 15:40:47.630, 1587847247630
157, 226.75, -408.10, 95.88, 35.46, 0.000, 0.000, 0.000, 15:40:47.645, 1587847247645
158, 242.21, -381.01, 122.27, 22.14, 0.000, 0.000, 0.000, 15:40:47.645, 1587847247645
159, 140.04, -480.85, 20.29, -16.41, 0.000, 0.000, 0.000, 15:40:47.660, 1587847247660
160, 177.61, -449.04, 52.85, 18.99, 0.000, 0.000, 0.000, 15:40:47.660, 1587847247660
161, 269.04, -362.17, 137.72, 37.61, 0.000, 0.000, 0.000, 15:40:47.661, 1587847247661
162, 169.10, -452.37, 44.96, -5.26, 0.000, 0.000, 0.000, 15:40:47.661, 1587847247661
163, 141.59, -475.14, 25.18, 1.85, 0.000, 0.000, 0.000, 15:40:47.674, 1587847247674
164, 245.83, -372.78, 128.99, 45.97, 0.000, 0.000, 0.000, 15:40:47.674, 1587847247674
165, 201.14, -412.96, 89.32, 10.24, 0.000, 0.000, 0.000, 15:40:47.689, 1587847247689
166, 128.60, -486.18, 11.66, -14.49, 0.000, 0.000, 0.000, 15:40:47.689, 1587847247689
167, 222.80, -395.06, 108.41, 33.28, 0.000, 0.000, 0.000, 15:40:47.692, 1587847247692
168, 237.43, -386.43, 112.69, 27.45, 0.000, 0.000, 0.000, 15:40:47.692, 1587847247692
169, 141.68, -473.93, 21.28, -13.67, 0.000, 0.000, 0.000, 15:40:47.704, 1587847247704
170, 191.69, -427.68, 75.68, 20.44, 0.000, 0.000, 0.000, 15:40:47.704, 1587847247704
171, 249.54, -372.65, 134.31, 38.58, 0.000, 0.000, 0.000, 15:40:47.720, 1587847247720
172, 168.09, -453.55, 45.56, -9.14, 0.000, 0.000, 0.000, 15:40:47.720, 1587847247720
173, 152.68, -465.12, 32.83, -0.20, 0.000, 0.000, 0.000, 15:40:47.721, 1587847247721
174, 252.50, -368.67, 136.72, 42.85, 0.000, 0.000, 0.000, 15:40:47.721, 1587847247721
175, 208.56, -410.99, 93.57, 8.49, 0.000, 0.000, 0.000, 15:40:47.735, 1587847247735
176, 128.91, -487.26, 10.72, -13.19, 0.000, 0.000, 0.000, 15:40:47.735, 1587847247735
177, 216.50, -401.47, 103.95, 32.50, 0.000, 0.000, 0.000, 15:40:47.750, 1587847247750
178, 236.80, -387.35, 120.93, 22.76, 0.000, 0.000, 0.000, 15:40:47.750, 1587847247750
179, 134.60, -478.55, 34.06, -14.06, 0.000, 0.000, 0.000, 15:40:47.751, 1587847247751
180, 166.65, -445.36, 62.23, 15.95, 0.000, 0.000, 0.000, 15:40:47.751, 1587847247751
181, 246.83, -361.74, 141.14, 35.44, 0.000, 0.000, 0.000, 15:40:47.780, 1587847247780
182, 170.64, -437.45, 61.65, -10.65, 0.000, 0.000, 0.000, 15:40:47.780, 1587847247780
183, 139.89, -463.80, 38.25, 3.48, 0.000, 0.000, 0.000, 15:40:47.781, 1587847247781
184, 241.01, -370.55, 134.16, 42.12, 0.000, 0.000, 0.000, 15:40:47.781, 1587847247781
185, 213.83, -391.37, 117.03, 11.13, 0.000, 0.000, 0.000, 15:40:47.782, 1587847247782
186, 120.42, -481.55, 17.21, -8.57, 0.000, 0.000, 0.000, 15:40:47.782, 1587847247782
187, 209.06, -396.84, 100.59, 33.72, 0.000, 0.000, 0.000, 15:40:47.794, 1587847247794
188, 243.86, -365.05, 134.09, 26.12, 0.000, 0.000, 0.000, 15:40:47.794, 1587847247794
189, 142.57, -462.47, 30.60, -12.85, 0.000, 0.000, 0.000, 15:40:47.810, 1587847247810
190, 178.03, -423.79, 67.96, 19.89, 0.000, 0.000, 0.000, 15:40:47.810, 1587847247810
191, 254.57, -351.89, 147.30, 37.05, 0.000, 0.000, 0.000, 15:40:47.812, 1587847247812
192, 185.68, -418.13, 75.21, -3.97, 0.000, 0.000, 0.000, 15:40:47.812, 1587847247812
193, 142.76, -460.26, 33.85, 5.14, 0.000, 0.000, 0.000, 15:40:47.824, 1587847247824
194, 243.63, -360.49, 127.01, 44.21, 0.000, 0.000, 0.000, 15:40:47.824, 1587847247824
195, 208.90, -389.59, 98.34, 7.96, 0.000, 0.000, 0.000, 15:40:47.840, 1587847247840
196, 122.16, -472.32, 23.02, -13.69, 0.000, 0.000, 0.000, 15:40:47.840, 1587847247840
197, 212.91, -382.02, 109.68, 35.50, 0.000, 0.000, 0.000, 15:40:47.842, 1587847247842
198, 236.06, -364.93, 128.37, 28.72, 0.000, 0.000, 0.000, 15:40:47.842, 1587847247842
199, 129.69, -463.38, 29.54, -15.78, 0.000, 0.000, 0.000, 15:40:47.855, 1587847247855
200, 176.47, -416.60, 75.99, 21.64, 0.000, 0.000, 0.000, 15:40:47.855, 1587847247855
0, 244.12, -344.45, 136.38, 40.83, 0.000, 0.000, 0.000, 15:40:47.856, 1587847247856
1, 167.42, -425.63, 64.38, -6.23, 0.000, 0.000, 0.000, 15:40:47.870, 1587847247870
2, 142.76, -449.67, 38.81, 1.07, 0.000, 0.000, 0.000, 15:40:47.870, 1587847247870
3, 230.93, -355.49, 132.03, 39.34, 0.000, 0.000, 0.000, 15:40:47.888, 1587847247888
4, 209.11, -380.76, 105.09, 7.39, 0.000, 0.000, 0.000, 15:40:47.888, 1587847247888
5, 135.38, -453.44, 29.96, -10.83, 0.000, 0.000, 0.000, 15:40:47.890, 1587847247890
6, 210.22, -380.13, 100.79, 32.14, 0.000, 0.000, 0.000, 15:40:47.890, 1587847247890
7, 236.97, -350.27, 125.63, 22.25, 0.000, 0.000, 0.000, 15:40:47.900, 1587847247900
8, 143.83, -436.54, 45.58, -13.59, 0.000, 0.000, 0.000, 15:40:47.900, 1587847247900
9, 158.77, -420.20, 64.22, 21.01, 0.000, 0.000, 0.000, 15:40:47.915, 1587847247915
10, 242.57, -339.59, 142.09, 40.30, 0.000, 0.000, 0.000, 15:40:47.915, 1587847247915
11, 172.06, -407.55, 73.24, -3.82, 0.000, 0.000, 0.000, 15:40:47.918, 1587847247918
12, 138.56, -439.21, 35.59, 1.50, 0.000, 0.000, 0.000, 15:40:47.918, 1587847247918
13, 245.61, -334.97, 142.89, 46.25, 0.000, 0.000, 0.000, 15:40:47.929, 1587847247929
14, 215.00, -366.15, 107.89, 12.02, 0.000, 0.000, 0.000, 15:40:47.929, 1587847247929
15, 113.54, -463.85, 11.78, -9.56, 0.000, 0.000, 0.000, 15:40:47.946, 1587847247946
16, 213.94, -359.83, 115.97, 38.45, 0.000, 0.000, 0.000, 15:40:47.946, 1587847247946
17, 227.17, -344.09, 132.92, 23.91, 0.000, 0.000, 0.000, 15:40:47.948, 1587847247948
18, 145.01, -427.00, 43.00, -9.93, 0.000, 0.000, 0.000, 15:40:47.948, 1587847247948
19, 155.04, -413.39, 56.93, 16.09, 0.000, 0.000, 0.000, 15:40:47.959, 1587847247959
20, 252.96, -325.02, 145.62, 38.52, 0.000, 0.000, 0.000, 15:40:47.959, 1587847247959
21, 163.70, -414.94, 59.53, -5.95, 0.000, 0.000, 0.000, 15:40:47.975, 1587847247975
22, 139.10, -431.88, 40.72, 4.16, 0.000, 0.000, 0.000, 15:40:47.975, 1587847247975
23, 233.39, -335.32, 133.29, 39.97, 0.000, 0.000, 0.000, 15:40:47.975, 1587847247975
24, 205.05, -362.69, 106.68, 10.71, 0.000, 0.000, 0.000, 15:40:47.975, 1587847247975
25, 120.18, -446.52, 12.67, -11.94, 0.000, 0.000, 0.000, 15:40:47.989, 1587847247989
26, 202.03, -365.70, 107.30, 29.46, 0.000, 0.000, 0.000, 15:40:47.989, 1587847247989
27, 234.90, -332.26, 136.41, 27.82, 0.000, 0.000, 0.000, 15:40:48.005, 1587847248005
28, 134.00, -430.65, 35.79, -15.71, 0.000, 0.000, 0.000, 15:40:48.005, 1587847248005
29, 171.25, -393.24, 71.76, 27.24, 0.000, 0.000, 0.000, 15:40:48.006, 1587847248006
30, 221.16, -335.17, 130.71, 35.25, 0.000, 0.000, 0.000, 15:40:48.006, 1587847248006
31, 162.19, -401.44, 69.41, -7.09, 0.000, 0.000, 0.000, 15:40:48.020, 1587847248020
32, 130.57, -427.37, 42.17, 8.88, 0.000, 0.000, 0.000, 15:40:48.020, 1587847248020
33, 228.45, -330.29, 133.34, 42.52, 0.000, 0.000, 0.000, 15:40:48.035, 1587847248035
34, 200.38, -360.02, 108.42, 8.04, 0.000, 0.000, 0.000, 15:40:48.035, 1587847248035
35, 119.11, -440.10, 21.98, -10.11, 0.000, 0.000, 0.000, 15:40:48.036, 1587847248036
36, 202.78, -356.42, 105.44, 36.13, 0.000, 0.000, 0.000, 15:40:48.036, 1587847248036
37, 226.04, -328.91, 133.64, 23.92, 0.000, 0.000, 0.000, 15:40:48.050, 1587847248050
38, 140.10, -417.34, 40.85, -13.53, 0.000, 0.000, 0.000, 15:40:48.050, 1587847248050
39, 163.45, -391.60, 65.47, 20.14, 0.000, 0.000, 0.000, 15:40:48.065, 1587847248065
40, 244.64, -309.13, 150.20, 39.20, 0.000, 0.000, 0.000, 15:40:48.065, 1587847248065
41, 157.07, -398.19, 62.08, -1.59, 0.000, 0.000, 0.000, 15:40:48.066, 1587847248066
42, 120.07, -433.65, 24.42, 6.28, 0.000, 0.000, 0.000, 15:40:48.066, 1587847248066
43, 228.20, -326.02, 133.16, 38.81, 0.000, 0.000, 0.000, 15:40:48.079, 1587847248079
44, 212.92, -339.35, 118.67, 12.28, 0.000, 0.000, 0.000, 15:40:48.079, 1587847248079
45, 104.55, -438.89, 17.84, -5.32, 0.000, 0.000, 0.000, 15:40:48.095, 1587847248095
46, 200.11, -344.40, 109.76, 33.06, 0.000, 0.000, 0.000, 15:40:48.095, 1587847248095
47, 231.99, -322.90, 137.28, 28.72, 0.000, 0.000, 0.000, 15:40:48.096, 1587847248096
48, 129.20, -421.37, 41.21, -13.11, 0.000, 0.000, 0.000, 15:40:48.096, 1587847248096
49, 160.77, -377.00, 80.69, 21.77, 0.000, 0.000, 0.000, 15:40:48.110, 1587847248110
50, 230.72, -309.77, 143.11, 38.84, 0.000, 0.000, 0.000, 15:40:48.110, 1587847248110
51, 152.83, -389.25, 66.00, -0.88, 0.000, 0.000, 0.000, 15:40:48.124, 1587847248124
52, 133.87, -411.73, 42.56, 5.88, 0.000, 0.000, 0.000, 15:40:48.124, 1587847248124
53, 234.17, -311.99, 142.87, 43.12, 0.000, 0.000, 0.000, 15:40:48.126, 1587847248126
54, 191.40, -351.83, 95.22, 8.81, 0.000, 0.000, 0.000, 15:40:48.126, 1587847248126
55, 120.84, -426.07, 23.13, -14.61, 0.000, 0.000, 0.000, 15:40:48.140, 1587847248140
56, 194.33, -342.55, 107.29, 36.89, 0.000, 0.000, 0.000, 15:40:48.140, 1587847248140
57, 223.11, -315.10, 125.66, 22.91, 0.000, 0.000, 0.000, 15:40:48.155, 1587847248155
58, 130.60, -411.51, 38.48, -6.87, 0.000, 0.000, 0.000, 15:40:48.155, 1587847248155
59, 157.13, -376.31, 69.87, 17.62, 0.000, 0.000, 0.000, 15:40:48.156, 1587847248156
60, 235.98, -299.37, 150.84, 37.98, 0.000, 0.000, 0.000, 15:40:48.156, 1587847248156
61, 155.39, -374.64, 69.99, -2.79, 0.000, 0.000, 0.000, 15:40:48.170, 1587847248170
62, 126.33, -404.12, 43.19, 8.04, 0.000, 0.000, 0.000, 15:40:48.170, 1587847248170
63, 216.09, -314.82, 132.78, 39.65, 0.000, 0.000, 0.000, 15:40:48.185, 1587847248185
64, 187.08, -341.67, 104.00, 14.84, 0.000, 0.000, 0.000, 15:40:48.185, 1587847248185
65, 108.34, -418.65, 31.09, -9.26, 0.000, 0.000, 0.000, 15:40:48.186, 1587847248186
66, 195.41, -328.83, 114.87, 30.86, 0.000, 0.000, 0.000, 15:40:48.186, 1587847248186
67, 218.75, -313.87, 132.85, 23.92, 0.000, 0.000, 0.000, 15:40:48.200, 1587847248200
68, 127.29, -402.69, 45.51, -12.10, 0.000, 0.000, 0.000, 15:40:48.200, 1587847248200
69, 146.22, -382.06, 63.15, 19.63, 0.000, 0.000, 0.000, 15:40:48.215, 1587847248215
70, 222.89, -297.23, 150.38, 40.67, 0.000, 0.000, 0.000, 15:40:48.215, 1587847248215
71, 151.83, -371.46, 71.00, -3.39, 0.000, 0.000, 0.000, 15:40:48.221, 1587847248221
72, 123.19, -398.68, 45.20, 5.89, 0.000, 0.000, 0.000, 15:40:48.221, 1587847248221
73, 214.60, -312.99, 131.98, 42.76, 0.000, 0.000, 0.000, 15:40:48.231, 1587847248231
74, 188.35, -334.64, 107.03, 7.57, 0.000, 0.000, 0.000, 15:40:48.231, 1587847248231
75, 109.21, -413.14, 22.68, -8.44, 0.000, 0.000, 0.000, 15:40:48.244, 1587847248244
76, 190.22, -332.36, 109.92, 33.61, 0.000, 0.000, 0.000, 15:40:48.244, 1587847248244
77, 214.07, -306.89, 136.66, 26.45, 0.000, 0.000, 0.000, 15:40:48.246, 1587847248246
78, 117.68, -399.88, 45.27, -10.61, 0.000, 0.000, 0.000, 15:40:48.246, 1587847248246
79, 158.61, -355.43, 83.09, 22.99, 0.000, 0.000, 0.000, 15:40:48.259, 1587847248259
80, 225.01, -296.07, 139.34, 35.67, 0.000, 0.000, 0.000, 15:40:48.259, 1587847248259
81, 145.19, -371.44, 67.27, -4.79, 0.000, 0.000, 0.000, 15:40:48.275, 1587847248275
82, 116.17, -400.19, 36.69, 3.82, 0.000, 0.000, 0.000, 15:40:48.275, 1587847248275
83, 213.62, -302.95, 137.90, 40.85, 0.000, 0.000, 0.000, 15:40:48.277, 1587847248277
84, 182.72, -338.95, 101.42, 6.20, 0.000, 0.000, 0.000, 15:40:48.277, 1587847248277
85, 108.35, -408.68, 33.02, -9.07, 0.000, 0.000, 0.000, 15:40:48.289, 1587847248289
86, 176.09, -326.81, 107.30, 30.95, 0.000, 0.000, 0.000, 15:40:48.289, 1587847248289
87, 201.60, -304.68, 133.29, 23.01, 0.000, 0.000, 0.000, 15:40:48.305, 1587847248305
88, 109.78, -392.64, 38.78, -11.31, 0.000, 0.000, 0.000, 15:40:48.305, 1587847248305
89, 141.47, -365.47, 66.44, 18.50, 0.000, 0.000, 0.000, 15:40:48.306, 1587847248306
90, 218.70, -290.68, 141.81, 36.79, 0.000, 0.000, 0.000, 15:40:48.306, 1587847248306
91, 141.49, -363.05, 75.36, -3.15, 0.000, 0.000, 0.000, 15:40:48.336, 1587847248336
92, 113.31, -392.56, 42.46, -0.59, 0.000, 0.000, 0.000, 15:40:48.336, 1587847248336
93, 216.94, -289.70, 148.32, 44.06, 0.000, 0.000, 0.000, 15:40:48.339, 1587847248339
94, 176.90, -330.33, 104.50, 12.80, 0.000, 0.000, 0.000, 15:40:48.339, 1587847248339
95, 93.41, -409.26, 26.38, -6.76, 0.000, 0.000, 0.000, 15:40:48.339, 1587847248339
96, 179.86, -320.65, 118.73, 36.09, 0.000, 0.000, 0.000, 15:40:48.339, 1587847248339
97, 202.10, -300.83, 144.46, 22.54, 0.000, 0.000, 0.000, 15:40:48.349, 1587847248349
98, 119.66, -377.40, 51.55, -11.82, 0.000, 0.000, 0.000, 15:40:48.349, 1587847248349
99, 152.49, -351.75, 84.70, 22.18, 0.000, 0.000, 0.000, 15:40:48.364, 1587847248364
100, 212.32, -290.31, 148.12, 36.02, 0.000, 0.000, 0.000, 15:40:48.364, 1587847248364
101, 145.50, -357.87, 82.61, -2.12, 0.000, 0.000, 0.000, 15:40:48.365, 1587847248365
102, 106.22, -394.03, 42.93, 2.86, 0.000, 0.000, 0.000, 15:40:48.365, 1587847248365
103, 209.77, -290.03, 138.82, 44.33, 0.000, 0.000, 0.000, 15:40:48.380, 1587847248380
104, 176.36, -324.66, 108.22, 9.73, 0.000, 0.000, 0.000, 15:40:48.380, 1587847248380
105, 99.98, -394.69, 28.93, -8.94, 0.000, 0.000, 0.000, 15:40:48.394, 1587847248394
106, 177.25, -323.01, 109.28, 32.05, 0.000, 0.000, 0.000, 15:40:48.394, 1587847248394
107, 196.75, -302.95, 126.24, 25.15, 0.000, 0.000, 0.000, 15:40:48.395, 1587847248395
108, 110.18, -385.59, 44.64, -12.11, 0.000, 0.000, 0.000, 15:40:48.395, 1587847248395
109, 140.48, -357.20, 68.54, 15.94, 0.000, 0.000, 0.000, 15:40:48.411, 1587847248411
110, 217.71, -280.93, 154.32, 38.17, 0.000, 0.000, 0.000, 15:40:48.411, 1587847248411
111, 129.68, -363.77, 69.05, -4.98, 0.000, 0.000, 0.000, 15:40:48.425, 1587847248425
112, 110.19, -386.08, 47.04, 9.19, 0.000, 0.000, 0.000, 15:40:48.425, 1587847248425
113, 206.13, -292.19, 136.97, 44.23, 0.000, 0.000, 0.000, 15:40:48.427, 1587847248427
114, 175.72, -318.93, 110.01, 11.40, 0.000, 0.000, 0.000, 15:40:48.427, 1587847248427
115, 92.36, -398.29, 27.49, -9.84, 0.000, 0.000, 0.000, 15:40:48.440, 1587847248440
116, 174.29, -320.20, 113.95, 37.59, 0.000, 0.000, 0.000, 15:40:48.440, 1587847248440
117, 195.59, -295.32, 143.00, 25.90, 0.000, 0.000, 0.000, 15:40:48.455, 1587847248455
118, 107.18, -376.68, 53.15, -12.39, 0.000, 0.000, 0.000, 15:40:48.455, 1587847248455
119, 136.13, -348.66, 86.16, 20.92, 0.000, 0.000, 0.000, 15:40:48.456, 1587847248456
120, 213.68, -283.18, 156.09, 38.53, 0.000, 0.000, 0.000, 15:40:48.456, 1587847248456
121, 142.79, -352.54, 88.62, -7.23, 0.000, 0.000, 0.000, 15:40:48.470, 1587847248470
122, 103.63, -374.02, 56.85, 6.65, 0.000, 0.000, 0.000, 15:40:48.470, 1587847248470
123, 196.93, -295.12, 136.71, 40.08, 0.000, 0.000, 0.000, 15:40:48.485, 1587847248485
124, 173.43, -313.45, 116.51, 10.03, 0.000, 0.000, 0.000, 15:40:48.485, 1587847248485
125, 94.32, -383.92, 42.73, -6.04, 0.000, 0.000, 0.000, 15:40:48.486, 1587847248486
126, 174.05, -311.43, 114.87, 32.13, 0.000, 0.000, 0.000, 15:40:48.486, 1587847248486
127, 198.68, -288.78, 140.57, 26.33, 0.000, 0.000, 0.000, 15:40:48.499, 1587847248499
128, 115.75, -380.97, 52.45, -10.91, 0.000, 0.000, 0.000, 15:40:48.499, 1587847248499
129, 135.08, -353.34, 77.86, 19.51, 0.000, 0.000, 0.000, 15:40:48.515, 1587847248515
130, 199.74, -269.77, 152.93, 37.66, 0.000, 0.000, 0.000, 15:40:48.515, 1587847248515
131, 125.98, -343.73, 89.02, -1.14, 0.000, 0.000, 0.000, 15:40:48.518, 1587847248518
132, 96.45, -380.17, 52.80, 9.05, 0.000, 0.000, 0.000, 15:40:48.518, 1587847248518
133, 196.14, -287.57, 146.83, 42.05, 0.000, 0.000, 0.000, 15:40:48.529, 1587847248529
134, 169.13, -309.83, 123.09, 9.15, 0.000, 0.000, 0.000, 15:40:48.529, 1587847248529
135, 86.59, -385.61, 37.53, -2.54, 0.000, 0.000, 0.000, 15:40:48.546, 1587847248546
136, 175.53, -303.34, 124.38, 35.27, 0.000, 0.000, 0.000, 15:40:48.546, 1587847248546
137, 201.41, -284.26, 143.01, 27.50, 0.000, 0.000, 0.000, 15:40:48.550, 1587847248550
138, 113.15, -365.88, 60.10, -10.68, 0.000, 0.000, 0.000, 15:40:48.550, 1587847248550
139, 131.45, -345.99, 82.51, 22.24, 0.000, 0.000, 0.000, 15:40:48.559, 1587847248559
140, 206.24, -273.79, 155.99, 40.61, 0.000, 0.000, 0.000, 15:40:48.559, 1587847248559
141, 133.41, -344.94, 76.25, -4.01, 0.000, 0.000, 0.000, 15:40:48.577, 1587847248577
142, 110.35, -367.25, 59.86, 4.16, 0.000, 0.000, 0.000, 15:40:48.577, 1587847248577
143, 206.05, -278.98, 148.81, 39.04, 0.000, 0.000, 0.000, 15:40:48.579, 1587847248579
144, 168.58, -311.65, 115.60, 7.31, 0.000, 0.000, 0.000, 15:40:48.579, 1587847248579
145, 87.59, -392.45, 34.55, -9.01, 0.000, 0.000, 0.000, 15:40:48.589, 1587847248589
146, 165.46, -311.65, 112.66, 31.36, 0.000, 0.000, 0.000, 15:40:48.589, 1587847248589
147, 188.23, -284.34, 136.83, 27.61, 0.000, 0.000, 0.000, 15:40:48.610, 1587847248610
148, 95.48, -373.12, 49.04, -13.22, 0.000, 0.000, 0.000, 15:40:48.610, 1587847248610
149, 129.62, -340.92, 82.50, 21.44, 0.000, 0.000, 0.000, 15:40:48.611, 1587847248611
150, 207.30, -265.66, 156.83, 37.87, 0.000, 0.000, 0.000, 15:40:48.611, 1587847248611
151, 136.66, -331.76, 89.20, -2.47, 0.000, 0.000, 0.000, 15:40:48.619, 1587847248619
152, 98.04, -372.84, 51.56, 4.98, 0.000, 0.000, 0.000, 15:40:48.619, 1587847248619
153, 200.40, -271.75, 146.65, 45.57, 0.000, 0.000, 0.000, 15:40:48.651, 1587847248651
154, 173.95, -305.11, 123.12, 12.18, 0.000, 0.000, 0.000, 15:40:48.651, 1587847248651
155, 105.36, -374.06, 46.99, -2.46, 0.000, 0.000, 0.000, 15:40:48.653, 1587847248653
156, 173.31, -301.97, 120.93, 34.06, 0.000, 0.000, 0.000, 15:40:48.653, 1587847248653
157, 206.33, -273.08, 147.66, 25.21, 0.000, 0.000, 0.000, 15:40:48.653, 1587847248653
158, 109.55, -368.39, 54.27, -15.59, 0.000, 0.000, 0.000, 15:40:48.653, 1587847248653
159, 137.17, -339.72, 77.09, 21.25, 0.000, 0.000, 0.000, 15:40:48.653, 1587847248653
160, 217.45, -266.89, 152.77, 39.75, 0.000, 0.000, 0.000, 15:40:48.653, 1587847248653
161, 146.47, -328.58, 90.03, -0.44, 0.000, 0.000, 0.000, 15:40:48.664, 1587847248664
162, 85.46, -370.94, 39.78, 0.54, 0.000, 0.000, 0.000, 15:40:48.664, 1587847248664
163, 173.97, -271.71, 146.70, 40.85, 0.000, 0.000, 0.000, 15:40:48.680, 1587847248680
164, 170.32, -307.34, 109.40, 10.81, 0.000, 0.000, 0.000, 15:40:48.680, 1587847248680
165, 58.02, -404.64, 1.80, -2.59, 0.000, 0.000, 0.000, 15:40:48.695, 1587847248695
166, 137.74, -307.14, 123.65, 33.82, 0.000, 0.000, 0.000, 15:40:48.695, 1587847248695
167, 206.37, -236.49, 187.28, 29.17, 0.000, 0.000, 0.000, 15:40:48.696, 1587847248696
168, 97.09, -376.26, 22.22, -4.23, 0.000, 0.000, 0.000, 15:40:48.696, 1587847248696
169, 26.23, -344.31, 117.74, 16.28, 0.000, 0.000, 0.000, 15:40:48.710, 1587847248710
170, 260.15, -221.76, 151.76, 39.72, 0.000, 0.000, 0.000, 15:40:48.710, 1587847248710
171, 129.76, -373.90, 81.84, -2.28, 0.000, 0.000, 0.000, 15:40:48.724, 1587847248724
172, 19.39, -402.01, 86.46, 5.59, 0.000, 0.000, 0.000, 15:40:48.724, 1587847248724
173, 221.52, -209.32, 178.16, 40.42, 0.000, 0.000, 0.000, 15:40:48.725, 1587847248725
174, 175.83, -270.59, 137.68, 11.11, 0.000, 0.000, 0.000, 15:40:48.725, 1587847248725
175, 162.02, -378.45, -6.67, -5.44, 0.000, 0.000, 0.000, 15:40:48.739, 1587847248739
176, 198.76, -311.32, 150.90, 34.63, 0.000, 0.000, 0.000, 15:40:48.739, 1587847248739
177, 234.15, -282.26, 168.30, 26.37, 0.000, 0.000, 0.000, 15:40:48.754, 1587847248754
178, 132.42, -391.10, 37.52, -6.37, 0.000, 0.000, 0.000, 15:40:48.754, 1587847248754
179, 127.64, -354.24, 105.70, 22.17, 0.000, 0.000, 0.000, 15:40:48.755, 1587847248755
180, 130.67, -293.96, 162.08, 37.72, 0.000, 0.000, 0.000, 15:40:48.755, 1587847248755
181, 199.78, -362.30, 18.15, -1.02, 0.000, 0.000, 0.000, 15:40:48.769, 1587847248769
182, 180.13, -347.06, 104.61, 4.81, 0.000, 0.000, 0.000, 15:40:48.769, 1587847248769
183, 203.96, -274.90, 163.43, 41.78, 0.000, 0.000, 0.000, 15:40:48.785, 1587847248785
184, -40.30, -374.65, 47.79, 10.18, 0.000, 0.000, 0.000, 15:40:48.785, 1587847248785
185, 40.74, -395.35, -19.38, -11.31, 0.000, 0.000, 0.000, 15:40:48.786, 1587847248786
186, 431.60, -322.74, 82.52, 35.13, 0.000, 0.000, 0.000, 15:40:48.786, 1587847248786
187, 287.64, -242.92, 178.46, 19.87, 0.000, 0.000, 0.000, 15:40:48.799, 1587847248799
188, 2.12, -385.19, 147.64, -10.23, 0.000, 0.000, 0.000, 15:40:48.799, 1587847248799
189, 256.58, -326.82, 82.76, 20.88, 0.000, 0.000, 0.000, 15:40:48.817, 1587847248817
190, 287.40, -226.67, 116.88, 35.02, 0.000, 0.000, 0.000, 15:40:48.817, 1587847248817
191, 192.47, -328.35, -5.36, -5.42, 0.000, 0.000, 0.000, 15:40:48.819, 1587847248819
192, 40.41, -417.56, 129.98, 9.17, 0.000, 0.000, 0.000, 15:40:48.819, 1587847248819
193, 115.65, -358.93, 90.24, 38.46, 0.000, 0.000, 0.000, 15:40:48.829, 1587847248829
194, 276.00, -179.28, 202.81, 12.78, 0.000, 0.000, 0.000, 15:40:48.829, 1587847248829
195, 68.74, -317.82, 139.50, -2.80, 0.000, 0.000, 0.000, 15:40:48.847, 1587847248847
196, 174.60, -297.38, 101.58, 37.21, 0.000, 0.000, 0.000, 15:40:48.847, 1587847248847
197, 197.58, -269.69, 152.89, 22.53, 0.000, 0.000, 0.000, 15:40:48.848, 1587847248848
198, 29.22, -380.03, 36.75, -10.12, 0.000, 0.000, 0.000, 15:40:48.848, 1587847248848
199, 161.69, -335.41, 225.55, 17.79, 0.000, 0.000, 0.000, 15:40:48.860, 1587847248860
200, 221.76, -297.03, 172.29, 36.76, 0.000, 0.000, 0.000, 15:40:48.860, 1587847248860
0, 180.48, -248.48, 161.52, -3.82, 0.000, 0.000, 0.000, 15:40:48.861, 1587847248861
1, 15.49, -391.30, 32.95, 8.94, 0.000, 0.000, 0.000, 15:40:48.876, 1587847248876
2, 41.48, -243.93, 217.32, 42.83, 0.000, 0.000, 0.000, 15:40:48.876, 1587847248876
3, 273.22, -212.59, 128.26, 6.44, 0.000, 0.000, 0.000, 15:40:48.890, 1587847248890
4, 179.18, -276.20, 100.05, -7.42, 0.000, 0.000, 0.000, 15:40:48.890, 1587847248890
5, 114.38, -283.03, 134.36, 41.40, 0.000, 0.000, 0.000, 15:40:48.890, 1587847248890
6, 119.72, -376.80, 77.75, 24.90, 0.000, 0.000, 0.000, 15:40:48.890, 1587847248890
7, 37.22, -284.73, 184.53, -9.56, 0.000, 0.000, 0.000, 15:40:48.907, 1587847248907
8, 91.19, -346.68, 245.27, 22.36, 0.000, 0.000, 0.000, 15:40:48.907, 1587847248907
9, 335.40, -144.37, 251.34, 38.48, 0.000, 0.000, 0.000, 15:40:48.920, 1587847248920
10, 41.61, -300.25, 122.07, -3.16, 0.000, 0.000, 0.000, 15:40:48.920, 1587847248920
11, 26.73, -217.83, 155.01, 6.48, 0.000, 0.000, 0.000, 15:40:48.921, 1587847248921
12, 150.34, -48.24, 158.11, 41.06, 0.000, 0.000, 0.000, 15:40:48.921, 1587847248921
13, 44.19, -375.43, -74.75, 7.87, 0.000, 0.000, 0.000, 15:40:48.935, 1587847248935
14, 45.05, -299.26, 276.87, -9.95, 0.000, 0.000, 0.000, 15:40:48.935, 1587847248935
15, 104.75, -220.52, 177.07, 39.72, 0.000, 0.000, 0.000, 15:40:48.950, 1587847248950
16, 16.94, -120.25, 91.35, 22.97, 0.000, 0.000, 0.000, 15:40:48.950, 1587847248950
17, 282.75, -31.47, 365.08, -12.63, 0.000, 0.000, 0.000, 15:40:48.951, 1587847248951
18, 67.51, -73.76, 74.77, 24.69, 0.000, 0.000, 0.000, 15:40:48.951, 1587847248951
19, 83.50, -34.80, 141.75, 40.65, 0.000, 0.000, 0.000, 15:40:48.964, 1587847248964
20, -112.54, -126.02, 48.82, -3.68, 0.000, 0.000, 0.000, 15:40:48.964, 1587847248964
21, -41.95, -43.65, 124.41, 2.90, 0.000, 0.000, 0.000, 15:40:48.980, 1587847248980
22, 206.92, 148.97, 163.91, 42.53, 0.000, 0.000, 0.000, 15:40:48.980, 1587847248980
23, 37.49, -31.10, -83.08, 15.32, 0.000, 0.000, 0.000, 15:40:48.980, 1587847248980
24, -113.77, -128.66, 94.37, -10.11, 0.000, 0.000, 0.000, 15:40:48.980, 1587847248980
25, -119.42, 52.13, 123.29, 37.88, 0.000, 0.000, 0.000, 15:40:48.994, 1587847248994
26, 61.23, 78.52, 30.47, 23.31, 0.000, 0.000, 0.000, 15:40:48.994, 1587847248994
27, 94.86, 230.69, 248.82, -6.54, 0.000, 0.000, 0.000, 15:40:49.011, 1587847249011
28, -43.94, 203.15, 121.09, 23.45, 0.000, 0.000, 0.000, 15:40:49.011, 1587847249011
29, 7.99, 168.78, 23.08, 38.09, 0.000, 0.000, 0.000, 15:40:49.015, 1587847249015
30, -72.38, 170.91, 15.08, -3.22, 0.000, 0.000, 0.000, 15:40:49.015, 1587847249015
31, -199.43, 157.88, -15.44, 7.42, 0.000, 0.000, 0.000, 15:40:49.024, 1587847249024
32, 7.23, 301.21, 148.69, 43.68, 0.000, 0.000, 0.000, 15:40:49.024, 1587847249024
33, 38.83, 256.17, 24.10, 13.99, 0.000, 0.000, 0.000, 15:40:49.040, 1587847249040
34, -140.04, 175.55, 73.77, -4.50, 0.000, 0.000, 0.000, 15:40:49.040, 1587847249040
35, -35.92, 305.45, 35.81, 40.47, 0.000, 0.000, 0.000, 15:40:49.050, 1587847249050
36, -14.58, 353.50, -45.82, 22.39, 0.000, 0.000, 0.000, 15:40:49.050, 1587847249050
37, -151.73, 284.74, -56.38, -6.78, 0.000, 0.000, 0.000, 15:40:49.055, 1587847249055
38, -248.60, 284.74, 118.44, 19.98, 0.000, 0.000, 0.000, 15:40:49.055, 1587847249055
39, 59.43, 394.96, 148.08, 40.54, 0.000, 0.000, 0.000, 15:40:49.069, 1587847249069
40, -107.80, 315.08, 3.20, -1.48, 0.000, 0.000, 0.000, 15:40:49.069, 1587847249069
41, -259.29, 279.96, -151.84, 8.92, 0.000, 0.000, 0.000, 15:40:49.070, 1587847249070
42, -20.78, 402.73, 29.15, 43.51, 0.000, 0.000, 0.000, 15:40:49.070, 1587847249070
43, -81.20, 463.71, 100.33, 14.18, 0.000, 0.000, 0.000, 15:40:49.088, 1587847249088
44, -301.52, 304.99, -20.86, -3.03, 0.000, 0.000, 0.000, 15:40:49.088, 1587847249088
45, 32.21, 458.03, -203.12, 36.20, 0.000, 0.000, 0.000, 15:40:49.100, 1587847249100
46, -24.47, 484.62, 171.99, 26.80, 0.000, 0.000, 0.000, 15:40:49.100, 1587847249100
47, -262.66, 323.79, -81.76, -6.95, 0.000, 0.000, 0.000, 15:40:49.101, 1587847249101
48, -173.52, 482.40, -14.24, 20.56, 0.000, 0.000, 0.000, 15:40:49.101, 1587847249101
49, -174.82, 544.72, -17.61, 35.68, 0.000, 0.000, 0.000, 15:40:49.117, 1587847249117
50, -167.68, 408.71, -283.58, -1.00, 0.000, 0.000, 0.000, 15:40:49.117, 1587847249117
51, -61.67, 582.96, 86.86, 5.40, 0.000, 0.000, 0.000, 15:40:49.129, 1587847249129
52, -119.84, 568.57, 17.63, 43.65, 0.000, 0.000, 0.000, 15:40:49.129, 1587847249129
53, -153.02, 501.32, -97.90, 11.03, 0.000, 0.000, 0.000, 15:40:49.130, 1587847249130
54, -220.99, 508.29, -55.06, -6.45, 0.000, 0.000, 0.000, 15:40:49.130, 1587847249130
55, -359.34, 529.33, -24.86, 36.37, 0.000, 0.000, 0.000, 15:40:49.144, 1587847249144
56, -162.03, 527.20, -126.39, 29.92, 0.000, 0.000, 0.000, 15:40:49.144, 1587847249144
57, -95.29, 610.50, -137.91, -7.46, 0.000, 0.000, 0.000, 15:40:49.160, 1587847249160
58, -190.22, 598.99, -126.48, 24.23, 0.000, 0.000, 0.000, 15:40:49.160, 1587847249160
59, -119.26, 623.27, -20.11, 38.90, 0.000, 0.000, 0.000, 15:40:49.161, 1587847249161
60, -178.46, 596.32, -172.14, -2.09, 0.000, 0.000, 0.000, 15:40:49.161, 1587847249161
61, -466.24, 523.66, -175.81, 4.20, 0.000, 0.000, 0.000, 15:40:49.175, 1587847249175
62, -86.46, 741.09, -131.44, 36.11, 0.000, 0.000, 0.000, 15:40:49.175, 1587847249175
63, -80.43, 691.91, 128.60, 9.30, 0.000, 0.000, 0.000, 15:40:49.191, 1587847249191
64, -255.18, 580.87, -123.98, -6.80, 0.000, 0.000, 0.000, 15:40:49.191, 1587847249191
65, -152.11, 650.98, -201.22, 37.29, 0.000, 0.000, 0.000, 15:40:49.194, 1587847249194
66, -133.93, 675.06, -97.48, 26.56, 0.000, 0.000, 0.000, 15:40:49.194, 1587847249194
67, -356.09, 608.53, -114.17, -8.86, 0.000, 0.000, 0.000, 15:40:49.204, 1587847249204
68, -176.22, 693.40, -309.42, 22.29, 0.000, 0.000, 0.000, 15:40:49.204, 1587847249204
69, -243.16, 689.22, 10.66, 38.08, 0.000, 0.000, 0.000, 15:40:49.221, 1587847249221
70, -181.91, 660.24, -72.92, -0.76, 0.000, 0.000, 0.000, 15:40:49.221, 1587847249221
71, -244.23, 638.56, -219.55, 4.23, 0.000, 0.000, 0.000, 15:40:49.223, 1587847249223
72, -260.16, 686.91, -104.88, 41.27, 0.000, 0.000, 0.000, 15:40:49.223, 1587847249223
73, -131.76, 718.55, -92.09, 14.56, 0.000, 0.000, 0.000, 15:40:49.234, 1587847249234
74, -289.85, 574.21, -229.64, -1.24, 0.000, 0.000, 0.000, 15:40:49.234, 1587847249234
75, -320.51, 612.46, -73.78, 36.25, 0.000, 0.000, 0.000, 15:40:49.249, 1587847249249
76, -51.38, 750.75, -237.82, 27.05, 0.000, 0.000, 0.000, 15:40:49.250, 1587847249250
77, -240.21, 684.73, -28.87, -5.19, 0.000, 0.000, 0.000, 15:40:49.250, 1587847249250
78, -251.60, 645.40, -167.90, 22.00, 0.000, 0.000, 0.000, 15:40:49.250, 1587847249250
79, -107.62, 696.65, -313.33, 41.30, 0.000, 0.000, 0.000, 15:40:49.264, 1587847249264
80, -278.03, 635.25, -91.54, 1.20, 0.000, 0.000, 0.000, 15:40:49.264, 1587847249264
81, -340.42, 642.01, -47.23, 9.81, 0.000, 0.000, 0.000, 15:40:49.279, 1587847249279
82, -158.72, 692.32, 8.08, 45.84, 0.000, 0.000, 0.000, 15:40:49.279, 1587847249279
83, -201.33, 637.05, -137.63, 11.54, 0.000, 0.000, 0.000, 15:40:49.280, 1587847249280
84, -174.90, 631.93, -188.67, -2.60, 0.000, 0.000, 0.000, 15:40:49.280, 1587847249280
85, -172.26, 666.14, -272.05, 36.58, 0.000, 0.000, 0.000, 15:40:49.294, 1587847249294
86, -100.35, 738.38, -137.63, 27.89, 0.000, 0.000, 0.000, 15:40:49.294, 1587847249294
87, -346.34, 533.05, -48.70, -12.59, 0.000, 0.000, 0.000, 15:40:49.309, 1587847249309
88, -281.23, 645.81, -158.48, 18.22, 0.000, 0.000, 0.000, 15:40:49.309, 1587847249309
89, -198.50, 673.86, -56.20, 35.45, 0.000, 0.000, 0.000, 15:40:49.310, 1587847249310
90, -204.25, 601.26, -88.62, 0.61, 0.000, 0.000, 0.000, 15:40:49.310, 1587847249310
91, -180.56, 540.40, -364.76, 6.69, 0.000, 0.000, 0.000, 15:40:49.324, 1587847249324
92, -103.41, 735.81, 14.82, 40.01, 0.000, 0.000, 0.000, 15:40:49.324, 1587847249324
93, -290.56, 623.39, -129.32, 12.73, 0.000, 0.000, 0.000, 15:40:49.339, 1587847249339
94, -290.21, 501.01, -212.24, -6.50, 0.000, 0.000, 0.000, 15:40:49.339, 1587847249339
95, -114.17, 667.05, -11.10, 36.99, 0.000, 0.000, 0.000, 15:40:49.355, 1587847249355
96, -74.44, 666.79, -210.90, 28.02, 0.000, 0.000, 0.000, 15:40:49.355, 1587847249355
97, -384.00, 504.72, -0.60, -4.50, 0.000, 0.000, 0.000, 15:40:49.356, 1587847249356
98, -261.19, 500.41, -63.31, 19.48, 0.000, 0.000, 0.000, 15:40:49.356, 1587847249356
99, 14.48, 703.27, -76.43, 42.87, 0.000, 0.000, 0.000, 15:40:49.370, 1587847249370
100, -239.50, 551.75, -277.55, -1.07, 0.000, 0.000, 0.000, 15:40:49.370, 1587847249370
101, -170.82, 554.37, -148.46, 5.57, 0.000, 0.000, 0.000, 15:40:49.371, 1587847249371
102, -107.06, 559.20, -22.58, 43.70, 0.000, 0.000, 0.000, 15:40:49.371, 1587847249371
103, -157.10, 536.24, -43.84, 13.62, 0.000, 0.000, 0.000, 15:40:49.385, 1587847249385
104, -303.34, 509.39, -151.64, -5.77, 0.000, 0.000, 0.000, 15:40:49.385, 1587847249385
105, -315.65, 508.16, -245.03, 40.54, 0.000, 0.000, 0.000, 15:40:49.400, 1587847249400
106, -110.87, 541.43, 76.76, 23.51, 0.000, 0.000, 0.000, 15:40:49.400, 1587847249400
107, -86.32, 539.10, -21.19, -7.84, 0.000, 0.000, 0.000, 15:40:49.401, 1587847249401
108, -219.72, 454.92, -124.97, 22.04, 0.000, 0.000, 0.000, 15:40:49.401, 1587847249401
109, -59.44, 560.00, -111.40, 37.00, 0.000, 0.000, 0.000, 15:40:49.414, 1587847249414
110, -159.83, 470.97, -48.53, -2.26, 0.000, 0.000, 0.000, 15:40:49.414, 1587847249414
111, -248.12, 423.01, -127.48, 10.42, 0.000, 0.000, 0.000, 15:40:49.430, 1587847249430
112, -178.61, 525.69, -20.17, 40.44, 0.000, 0.000, 0.000, 15:40:49.430, 1587847249430
113, -73.06, 474.17, -39.51, 15.69, 0.000, 0.000, 0.000, 15:40:49.445, 1587847249445
114, -291.09, 360.98, -90.37, -0.98, 0.000, 0.000, 0.000, 15:40:49.445, 1587847249445
115, -18.53, 490.12, -73.53, 37.96, 0.000, 0.000, 0.000, 15:40:49.446, 1587847249446
116, -38.96, 499.35, -73.04, 25.02, 0.000, 0.000, 0.000, 15:40:49.446, 1587847249446
117, -192.55, 363.63, -17.70, -14.49, 0.000, 0.000, 0.000, 15:40:49.460, 1587847249460
118, -206.14, 342.05, -143.32, 21.09, 0.000, 0.000, 0.000, 15:40:49.460, 1587847249460
119, -73.97, 464.59, -0.39, 37.87, 0.000, 0.000, 0.000, 15:40:49.461, 1587847249461
120, -181.17, 375.08, 8.59, 3.14, 0.000, 0.000, 0.000, 15:40:49.461, 1587847249461
121, -150.21, 358.27, -34.01, 7.48, 0.000, 0.000, 0.000, 15:40:49.474, 1587847249474
122, -133.45, 405.59, 91.57, 43.91, 0.000, 0.000, 0.000, 15:40:49.474, 1587847249474
123, -265.15, 334.57, 34.48, 12.38, 0.000, 0.000, 0.000, 15:40:49.490, 1587847249490
124, -137.45, 297.37, -130.29, -8.61, 0.000, 0.000, 0.000, 15:40:49.490, 1587847249490
125, -135.31, 367.96, 114.38, 34.17, 0.000, 0.000, 0.000, 15:40:49.491, 1587847249491
126, -125.50, 299.21, 54.70, 25.82, 0.000, 0.000, 0.000, 15:40:49.491, 1587847249491
127, -115.13, 214.68, -137.90, -7.69, 0.000, 0.000, 0.000, 15:40:49.504, 1587847249504
128, -88.15, 338.44, 36.52, 19.66, 0.000, 0.000, 0.000, 15:40:49.504, 1587847249504
129, -85.85, 363.15, 77.56, 36.86, 0.000, 0.000, 0.000, 15:40:49.520, 1587847249520
130, -181.07, 261.41, 39.81, -2.56, 0.000, 0.000, 0.000, 15:40:49.520, 1587847249520
131, -170.98, 224.13, -0.11, 6.61, 0.000, 0.000, 0.000, 15:40:49.521, 1587847249521
132, -39.49, 298.70, 113.54, 42.05, 0.000, 0.000, 0.000, 15:40:49.521, 1587847249521
133, -77.33, 269.47, 55.61, 10.71, 0.000, 0.000, 0.000, 15:40:49.534, 1587847249534
134, -150.48, 180.44, -27.93, -7.76, 0.000, 0.000, 0.000, 15:40:49.534, 1587847249534
135, -86.15, 222.01, 35.83, 36.62, 0.000, 0.000, 0.000, 15:40:49.550, 1587847249550
136, -51.15, 250.17, 83.32, 29.44, 0.000, 0.000, 0.000, 15:40:49.550, 1587847249550
137, -128.04, 172.07, -8.53, -9.60, 0.000, 0.000, 0.000, 15:40:49.551, 1587847249551
138, -99.29, 173.21, 40.25, 16.66, 0.000, 0.000, 0.000, 15:40:49.551, 1587847249551
139, -20.68, 232.27, 110.69, 41.68, 0.000, 0.000, 0.000, 15:40:49.564, 1587847249564
140, -77.80, 151.62, 19.76, 1.49, 0.000, 0.000, 0.000, 15:40:49.564, 1587847249564
141, -100.23, 113.05, -10.35, 7.20, 0.000, 0.000, 0.000, 15:40:49.579, 1587847249579
142, -18.28, 166.30, 102.72, 39.98, 0.000, 0.000, 0.000, 15:40:49.579, 1587847249579
143, -69.99, 127.20, 80.72, 9.70, 0.000, 0.000, 0.000, 15:40:49.580, 1587847249580
144, -60.28, 60.63, 5.23, -4.85, 0.000, 0.000, 0.000, 15:40:49.580, 1587847249580
145, -7.64, 103.71, 92.04, 35.90, 0.000, 0.000, 0.000, 15:40:49.594, 1587847249594
146, 5.86, 97.84, 87.94, 22.65, 0.000, 0.000, 0.000, 15:40:49.594, 1587847249594
147, -70.97, -0.30, 8.08, -7.84, 0.000, 0.000, 0.000, 15:40:49.610, 1587847249610
148, -30.56, 18.53, 42.96, 22.92, 0.000, 0.000, 0.000, 15:40:49.610, 1587847249610
149, 52.04, 80.35, 113.24, 35.43, 0.000, 0.000, 0.000, 15:40:49.610, 1587847249610
150, 6.19, 7.75, 56.30, -1.22, 0.000, 0.000, 0.000, 15:40:49.610, 1587847249610
151, -52.95, -64.33, 9.30, 5.24, 0.000, 0.000, 0.000, 15:40:49.624, 1587847249624
152, 34.39, 7.88, 93.27, 37.79, 0.000, 0.000, 0.000, 15:40:49.624, 1587847249624
153, 49.49, -14.16, 94.71, 7.50, 0.000, 0.000, 0.000, 15:40:49.644, 1587847249644
154, -14.17, -75.71, 33.12, -4.31, 0.000, 0.000, 0.000, 15:40:49.644, 1587847249644
155, 38.80, -40.18, 86.73, 35.62, 0.000, 0.000, 0.000, 15:40:49.645, 1587847249645
156, 77.89, -19.24, 135.02, 30.16, 0.000, 0.000, 0.000, 15:40:49.645, 1587847249645
157, -14.51, -118.57, 37.36, -8.08, 0.000, 0.000, 0.000, 15:40:49.654, 1587847249654
158, 25.39, -104.81, 65.68, 20.39, 0.000, 0.000, 0.000, 15:40:49.654, 1587847249654
159, 78.78, -61.38, 94.76, 36.85, 0.000, 0.000, 0.000, 15:40:49.670, 1587847249670
160, 20.50, -134.06, 61.85, -1.77, 0.000, 0.000, 0.000, 15:40:49.670, 1587847249670
161, -5.89, -170.47, 47.28, 7.17, 0.000, 0.000, 0.000, 15:40:49.670, 1587847249670
162, 89.43, -78.46, 139.93, 41.81, 0.000, 0.000, 0.000, 15:40:49.670, 1587847249670
163, 91.47, -116.73, 91.61, 13.10, 0.000, 0.000, 0.000, 15:40:49.685, 1587847249685
164, 4.74, -208.59, 6.87, -8.74, 0.000, 0.000, 0.000, 15:40:49.685, 1587847249685
165, 67.41, -143.26, 127.13, 34.06, 0.000, 0.000, 0.000, 15:40:49.700, 1587847249700
166, 96.10, -130.25, 106.90, 24.09, 0.000, 0.000, 0.000, 15:40:49.700, 1587847249700
167, 38.73, -206.29, 63.91, -11.84, 0.000, 0.000, 0.000, 15:40:49.701, 1587847249701
168, 52.63, -194.39, 71.96, 19.91, 0.000, 0.000, 0.000, 15:40:49.701, 1587847249701
169, 121.12, -148.89, 117.92, 35.93, 0.000, 0.000, 0.000, 15:40:49.714, 1587847249714
170, 79.56, -205.86, 80.52, -4.60, 0.000, 0.000, 0.000, 15:40:49.714, 1587847249714
171, 34.48, -223.57, 62.26, 8.16, 0.000, 0.000, 0.000, 15:40:49.730, 1587847249730
172, 133.13, -154.84, 139.89, 41.36, 0.000, 0.000, 0.000, 15:40:49.730, 1587847249730
173, 98.54, -210.36, 106.89, 12.01, 0.000, 0.000, 0.000, 15:40:49.731, 1587847249731
174, 27.01, -276.31, 48.90, -6.19, 0.000, 0.000, 0.000, 15:40:49.731, 1587847249731
175, 106.30, -215.09, 112.65, 35.45, 0.000, 0.000, 0.000, 15:40:49.744, 1587847249744
176, 97.39, -199.13, 144.14, 26.17, 0.000, 0.000, 0.000, 15:40:49.744, 1587847249744
177, 44.12, -287.61, 49.33, -5.31, 0.000, 0.000, 0.000, 15:40:49.760, 1587847249760
178, 96.41, -267.77, 71.45, 18.00, 0.000, 0.000, 0.000, 15:40:49.760, 1587847249760
179, 158.51, -204.39, 144.02, 37.56, 0.000, 0.000, 0.000, 15:40:49.761, 1587847249761
180, 94.16, -275.05, 72.03, -2.88, 0.000, 0.000, 0.000, 15:40:49.761, 1587847249761
181, 48.04, -323.79, 85.34, 6.45, 0.000, 0.000, 0.000, 15:40:49.774, 1587847249774
182, 141.55, -237.26, 154.42, 41.37, 0.000, 0.000, 0.000, 15:40:49.774, 1587847249774
183, 108.92, -260.18, 120.48, 8.79, 0.000, 0.000, 0.000, 15:40:49.806, 1587847249806
184, 59.84, -328.05, 60.23, -6.68, 0.000, 0.000, 0.000, 15:40:49.806, 1587847249806
185, 132.99, -265.86, 129.62, 32.34, 0.000, 0.000, 0.000, 15:40:49.807, 1587847249807
186, 159.21, -266.36, 131.02, 24.27, 0.000, 0.000, 0.000, 15:40:49.807, 1587847249807
187, 50.11, -354.31, 61.89, -11.88, 0.000, 0.000, 0.000, 15:40:49.808, 1587847249808
188, 91.70, -313.74, 77.82, 18.88, 0.000, 0.000, 0.000, 15:40:49.808, 1587847249808
189, 192.55, -253.91, 159.55, 33.17, 0.000, 0.000, 0.000, 15:40:49.808, 1587847249808
190, 122.50, -321.65, 109.49, -2.69, 0.000, 0.000, 0.000, 15:40:49.808, 1587847249808
191, 96.83, -356.17, 79.78, 0.18, 0.000, 0.000, 0.000, 15:40:49.820, 1587847249820
192, 172.57, -275.60, 152.07, 33.73, 0.000, 0.000, 0.000, 15:40:49.820, 1587847249820
193, 153.34, -306.21, 130.06, 13.05, 0.000, 0.000, 0.000, 15:40:49.834, 1587847249834
194, 86.06, -386.77, 49.39, -4.84, 0.000, 0.000, 0.000, 15:40:49.834, 1587847249834
195, 148.24, -325.38, 134.34, 33.43, 0.000, 0.000, 0.000, 15:40:49.850, 1587847249850
196, 169.14, -306.09, 143.80, 27.63, 0.000, 0.000, 0.000, 15:40:49.850, 1587847249850
197, 105.80, -372.24, 69.79, -5.48, 0.000, 0.000, 0.000, 15:40:49.851, 1587847249851
198, 111.21, -366.03, 71.02, 21.15, 0.000, 0.000, 0.000, 15:40:49.851, 1587847249851
199, 200.20, -293.26, 161.92, 35.67, 0.000, 0.000, 0.000, 15:40:49.865, 1587847249865
200, 120.33, -375.79, 94.61, -4.78, 0.000, 0.000, 0.000, 15:40:49.865, 1587847249865
0, 98.16, -411.72, 50.66, 3.06, 0.000, 0.000, 0.000, 15:40:49.865, 1587847249865
1, 181.34, -338.68, 123.81, 36.25, 0.000, 0.000, 0.000, 15:40:49.879, 1587847249879
2, 162.82, -350.57, 130.97, 9.81, 0.000, 0.000, 0.000, 15:40:49.879, 1587847249879
3, 92.87, -424.67, 88.95, -11.20, 0.000, 0.000, 0.000, 15:40:49.911, 1587847249911
4, 160.33, -346.36, 137.45, 25.41, 0.000, 0.000, 0.000, 15:40:49.911, 1587847249911
5, 180.01, -352.84, 125.67, 26.18, 0.000, 0.000, 0.000, 15:40:49.912, 1587847249912
6, 112.62, -408.91, 87.36, -12.79, 0.000, 0.000, 0.000, 15:40:49.912, 1587847249912
7, 143.93, -378.43, 104.76, 20.38, 0.000, 0.000, 0.000, 15:40:49.913, 1587847249913
8, 180.99, -345.67, 162.12, 37.27, 0.000, 0.000, 0.000, 15:40:49.913, 1587847249913
9, 133.10, -391.88, 114.62, -6.16, 0.000, 0.000, 0.000, 15:40:49.913, 1587847249913
10, 105.91, -431.91, 72.11, 0.84, 0.000, 0.000, 0.000, 15:40:49.913, 1587847249913
11, 212.32, -358.76, 158.15, 37.04, 0.000, 0.000, 0.000, 15:40:49.926, 1587847249926
12, 189.30, -368.72, 137.97, 6.74, 0.000, 0.000, 0.000, 15:40:49.926, 1587847249926
13, 97.39, -461.65, 49.51, -9.43, 0.000, 0.000, 0.000, 15:40:49.939, 1587847249939
14, 167.84, -388.23, 119.95, 35.77, 0.000, 0.000, 0.000, 15:40:49.939, 1587847249939
15, 208.19, -345.96, 173.25, 19.61, 0.000, 0.000, 0.000, 15:40:49.955, 1587847249955
16, 113.83, -442.10, 78.41, -7.82, 0.000, 0.000, 0.000, 15:40:49.955, 1587847249955
17, 127.81, -431.26, 100.01, 18.20, 0.000, 0.000, 0.000, 15:40:49.956, 1587847249956
18, 221.55, -356.21, 152.49, 36.56, 0.000, 0.000, 0.000, 15:40:49.956, 1587847249956
19, 161.95, -410.88, 102.21, -5.69, 0.000, 0.000, 0.000, 15:40:49.969, 1587847249969
20, 127.44, -444.76, 89.41, 5.49, 0.000, 0.000, 0.000, 15:40:49.969, 1587847249969
21, 205.23, -383.66, 158.29, 37.46, 0.000, 0.000, 0.000, 15:40:49.985, 1587847249985
22, 177.13, -406.01, 129.54, 11.13, 0.000, 0.000, 0.000, 15:40:49.985, 1587847249985
23, 107.50, -469.60, 49.15, -7.32, 0.000, 0.000, 0.000, 15:40:49.985, 1587847249985
24, 169.58, -416.64, 110.62, 24.95, 0.000, 0.000, 0.000, 15:40:49.985, 1587847249985
25, 215.62, -371.09, 184.68, 22.44, 0.000, 0.000, 0.000, 15:40:49.999, 1587847249999
26, 117.53, -460.83, 81.02, -8.33, 0.000, 0.000, 0.000, 15:40:49.999, 1587847249999
27, 133.65, -443.60, 93.68, 17.38, 0.000, 0.000, 0.000, 15:40:50.015, 1587847250015
28, 229.25, -366.11, 165.99, 35.44, 0.000, 0.000, 0.000, 15:40:50.015, 1587847250015
29, 156.10, -438.07, 89.75, -6.12, 0.000, 0.000, 0.000, 15:40:50.016, 1587847250016
30, 141.08, -467.66, 57.82, 0.40, 0.000, 0.000, 0.000, 15:40:50.016, 1587847250016
31, 239.58, -380.17, 136.98, 40.51, 0.000, 0.000, 0.000, 15:40:50.029, 1587847250029
32, 226.81, -400.44, 90.92, 11.33, 0.000, 0.000, 0.000, 15:40:50.029, 1587847250029
33, 152.57, -473.45, 21.71, -9.16, 0.000, 0.000, 0.000, 15:40:50.045, 1587847250045
34, 227.18, -397.48, 86.53, 31.81, 0.000, 0.000, 0.000, 15:40:50.045, 1587847250045
35, 276.17, -371.43, 120.91, 22.82, 0.000, 0.000, 0.000, 15:40:50.049, 1587847250049
36, 189.49, -455.84, 18.07, -13.56, 0.000, 0.000, 0.000, 15:40:50.049, 1587847250049
37, 211.58, -429.58, 33.71, 19.71, 0.000, 0.000, 0.000, 15:40:50.060, 1587847250060
38, 284.66, -358.84, 115.49, 34.19, 0.000, 0.000, 0.000, 15:40:50.060, 1587847250060
39, 197.10, -445.81, 12.36, -9.32, 0.000, 0.000, 0.000, 15:40:50.075, 1587847250075
40, 177.83, -455.40, 32.20, -0.79, 0.000, 0.000, 0.000, 15:40:50.075, 1587847250075
41, 263.32, -375.95, 107.57, 32.65, 0.000, 0.000, 0.000, 15:40:50.076, 1587847250076
42, 235.53, -417.25, 75.91, 7.03, 0.000, 0.000, 0.000, 15:40:50.076, 1587847250076
43, 174.97, -475.48, 10.52, -5.19, 0.000, 0.000, 0.000, 15:40:50.099, 1587847250099
44, 234.78, -396.57, 93.45, 27.03, 0.000, 0.000, 0.000, 15:40:50.099, 1587847250099
45, 255.85, -403.17, 103.22, 21.83, 0.000, 0.000, 0.000, 15:40:50.105, 1587847250105
46, 177.15, -463.61, 25.23, -11.68, 0.000, 0.000, 0.000, 15:40:50.105, 1587847250105
47, 206.31, -433.94, 46.47, 18.10, 0.000, 0.000, 0.000, 15:40:50.106, 1587847250106
48, 270.89, -362.17, 121.72, 35.46, 0.000, 0.000, 0.000, 15:40:50.106, 1587847250106
49, 193.71, -458.78, 23.69, -5.21, 0.000, 0.000, 0.000, 15:40:50.120, 1587847250120
50, 170.14, -480.46, 14.62, -0.29, 0.000, 0.000, 0.000, 15:40:50.120, 1587847250120
51, 275.25, -363.65, 128.72, 36.08, 0.000, 0.000, 0.000, 15:40:50.134, 1587847250134
52, 254.38, -393.23, 95.68, 7.06, 0.000, 0.000, 0.000, 15:40:50.134, 1587847250134
53, 159.66, -484.38, 17.19, -7.95, 0.000, 0.000, 0.000, 15:40:50.136, 1587847250136
54, 231.79, -411.14, 86.69, 31.12, 0.000, 0.000, 0.000, 15:40:50.136, 1587847250136
55, 253.98, -391.01, 114.21, 22.76, 0.000, 0.000, 0.000, 15:40:50.150, 1587847250150
56, 171.18, -462.27, 25.04, -11.18, 0.000, 0.000, 0.000, 15:40:50.150, 1587847250150
57, 212.83, -442.76, 45.42, 21.25, 0.000, 0.000, 0.000, 15:40:50.166, 1587847250166
58, 259.18, -384.06, 121.34, 37.49, 0.000, 0.000, 0.000, 15:40:50.166, 1587847250166
59, 200.91, -446.41, 55.77, -4.16, 0.000, 0.000, 0.000, 15:40:50.169, 1587847250169
60, 174.72, -466.55, 41.18, 2.24, 0.000, 0.000, 0.000, 15:40:50.169, 1587847250169
61, 256.37, -389.96, 105.53, 37.38, 0.000, 0.000, 0.000, 15:40:50.179, 1587847250179
62, 233.20, -412.05, 90.85, 3.39, 0.000, 0.000, 0.000, 15:40:50.179, 1587847250179
63, 164.99, -479.14, 28.57, -5.77, 0.000, 0.000, 0.000, 15:40:50.196, 1587847250196
64, 234.44, -415.50, 94.79, 30.54, 0.000, 0.000, 0.000, 15:40:50.196, 1587847250196
65, 262.74, -378.08, 131.19, 21.95, 0.000, 0.000, 0.000, 15:40:50.199, 1587847250199
66, 156.11, -475.99, 33.59, -11.22, 0.000, 0.000, 0.000, 15:40:50.199, 1587847250199
67, 195.42, -437.44, 65.53, 20.08, 0.000, 0.000, 0.000, 15:40:50.209, 1587847250209
68, 283.01, -366.95, 132.24, 32.11, 0.000, 0.000, 0.000, 15:40:50.209, 1587847250209
69, 218.63, -434.65, 70.85, -5.79, 0.000, 0.000, 0.000, 15:40:50.225, 1587847250225
70, 166.28, -480.13, 31.33, 2.80, 0.000, 0.000, 0.000, 15:40:50.225, 1587847250225
71, 223.91, -389.32, 121.95, 40.71, 0.000, 0.000, 0.000, 15:40:50.228, 1587847250228
72, 231.43, -408.37, 97.84, 10.37, 0.000, 0.000, 0.000, 15:40:50.228, 1587847250228
73, 182.38, -474.51, 28.90, -11.23, 0.000, 0.000, 0.000, 15:40:50.239, 1587847250239
74, 233.63, -415.64, 81.70, 30.76, 0.000, 0.000, 0.000, 15:40:50.239, 1587847250239
75, 279.95, -377.03, 133.25, 22.89, 0.000, 0.000, 0.000, 15:40:50.255, 1587847250255
76, 162.41, -487.55, 25.65, -9.31, 0.000, 0.000, 0.000, 15:40:50.255, 1587847250255
77, 191.00, -443.63, 73.52, 15.12, 0.000, 0.000, 0.000, 15:40:50.256, 1587847250256
78, 256.09, -379.86, 140.31, 32.50, 0.000, 0.000, 0.000, 15:40:50.256, 1587847250256
79, 202.49, -433.07, 78.84, -3.33, 0.000, 0.000, 0.000, 15:40:50.269, 1587847250269
80, 157.58, -475.72, 27.47, 0.86, 0.000, 0.000, 0.000, 15:40:50.269, 1587847250269
81, 239.54, -395.04, 114.55, 37.47, 0.000, 0.000, 0.000, 15:40:50.287, 1587847250287
82, 220.33, -411.33, 106.36, 10.87, 0.000, 0.000, 0.000, 15:40:50.287, 1587847250287
83, 153.38, -473.17, 33.48, -6.72, 0.000, 0.000, 0.000, 15:40:50.288, 1587847250288
84, 231.45, -398.72, 106.39, 33.55, 0.000, 0.000, 0.000, 15:40:50.288, 1587847250288
85, 263.81, -371.68, 131.80, 20.63, 0.000, 0.000, 0.000, 15:40:50.299, 1587847250299
86, 167.70, -460.63, 48.03, -10.41, 0.000, 0.000, 0.000, 15:40:50.299, 1587847250299
87, 178.43, -438.65, 71.05, 14.39, 0.000, 0.000, 0.000, 15:40:50.315, 1587847250315
88, 257.61, -361.89, 148.82, 38.60, 0.000, 0.000, 0.000, 15:40:50.315, 1587847250315
89, 194.81, -442.84, 70.27, -1.19, 0.000, 0.000, 0.000, 15:40:50.316, 1587847250316
90, 150.73, -470.47, 50.86, 1.98, 0.000, 0.000, 0.000, 15:40:50.316, 1587847250316
91, 243.68, -381.03, 132.69, 40.18, 0.000, 0.000, 0.000, 15:40:50.331, 1587847250331
92, 230.88, -397.55, 112.53, 9.70, 0.000, 0.000, 0.000, 15:40:50.331, 1587847250331
93, 146.44, -470.00, 43.17, -4.23, 0.000, 0.000, 0.000, 15:40:50.345, 1587847250345
94, 215.39, -403.20, 109.46, 32.52, 0.000, 0.000, 0.000, 15:40:50.345, 1587847250345
95, 239.63, -372.81, 142.17, 25.83, 0.000, 0.000, 0.000, 15:40:50.345, 1587847250345
96, 162.29, -452.27, 47.30, -2.92, 0.000, 0.000, 0.000, 15:40:50.345, 1587847250345
97, 185.14, -441.83, 62.45, 15.95, 0.000, 0.000, 0.000, 15:40:50.359, 1587847250359
98, 267.90, -359.45, 158.05, 33.94, 0.000, 0.000, 0.000, 15:40:50.359, 1587847250359
99, 187.91, -423.27, 82.14, -5.59, 0.000, 0.000, 0.000, 15:40:50.375, 1587847250375
100, 159.64, -445.84, 57.36, 3.01, 0.000, 0.000, 0.000, 15:40:50.375, 1587847250375
101, 241.41, -362.86, 147.66, 43.37, 0.000, 0.000, 0.000, 15:40:50.375, 1587847250375
102, 223.64, -389.13, 119.52, 11.46, 0.000, 0.000, 0.000, 15:40:50.375, 1587847250375
103, 130.18, -479.82, 20.31, -8.82, 0.000, 0.000, 0.000, 15:40:50.389, 1587847250389
104, 211.76, -394.34, 114.32, 27.52, 0.000, 0.000, 0.000, 15:40:50.389, 1587847250389
105, 249.67, -368.51, 146.02, 25.70, 0.000, 0.000, 0.000, 15:40:50.404, 1587847250404
106, 152.87, -453.60, 56.36, -8.93, 0.000, 0.000, 0.000, 15:40:50.404, 1587847250404
107, 168.59, -427.32, 76.71, 18.53, 0.000, 0.000, 0.000, 15:40:50.405, 1587847250405
108, 253.41, -352.07, 153.38, 33.17, 0.000, 0.000, 0.000, 15:40:50.405, 1587847250405
109, 194.03, -418.88, 88.90, -3.96, 0.000, 0.000, 0.000, 15:40:50.420, 1587847250420
110, 146.92, -454.79, 58.11, 3.22, 0.000, 0.000, 0.000, 15:40:50.420, 1587847250420
111, 225.50, -379.62, 131.04, 34.89, 0.000, 0.000, 0.000, 15:40:50.435, 1587847250435
112, 215.95, -386.54, 125.67, 14.45, 0.000, 0.000, 0.000, 15:40:50.435, 1587847250435
113, 128.55, -457.94, 49.99, -5.03, 0.000, 0.000, 0.000, 15:40:50.435, 1587847250435
114, 204.05, -376.75, 128.15, 32.95, 0.000, 0.000, 0.000, 15:40:50.435, 1587847250435
115, 217.40, -373.04, 133.96, 25.55, 0.000, 0.000, 0.000, 15:40:50.467, 1587847250467
116, 155.95, -435.29, 59.02, -9.46, 0.000, 0.000, 0.000, 15:40:50.467, 1587847250467
117, 170.16, -426.28, 72.46, 19.59, 0.000, 0.000, 0.000, 15:40:50.467, 1587847250467
118, 255.11, -341.06, 162.80, 35.13, 0.000, 0.000, 0.000, 15:40:50.467, 1587847250467
119, 167.00, -416.19, 78.98, -5.08, 0.000, 0.000, 0.000, 15:40:50.468, 1587847250468
120, 151.56, -424.05, 72.71, 1.40, 0.000, 0.000, 0.000, 15:40:50.468, 1587847250468
121, 237.28, -349.95, 152.68, 39.91, 0.000, 0.000, 0.000, 15:40:50.479, 1587847250479
122, 209.01, -380.07, 121.48, 7.62, 0.000, 0.000, 0.000, 15:40:50.479, 1587847250479
123, 136.48, -444.25, 45.66, -5.36, 0.000, 0.000, 0.000, 15:40:50.511, 1587847250511
124, 202.93, -375.78, 118.23, 33.56, 0.000, 0.000, 0.000, 15:40:50.511, 1587847250511
125, 218.34, -356.83, 143.00, 23.92, 0.000, 0.000, 0.000, 15:40:50.512, 1587847250512
126, 142.43, -433.36, 59.48, -7.74, 0.000, 0.000, 0.000, 15:40:50.512, 1587847250512
127, 169.35, -408.70, 80.32, 24.51, 0.000, 0.000, 0.000, 15:40:50.513, 1587847250513
128, 237.36, -345.78, 140.28, 34.53, 0.000, 0.000, 0.000, 15:40:50.513, 1587847250513
129, 173.76, -405.25, 83.21, -3.07, 0.000, 0.000, 0.000, 15:40:50.514, 1587847250514
130, 134.63, -440.36, 48.70, 6.02, 0.000, 0.000, 0.000, 15:40:50.514, 1587847250514
131, 223.92, -345.29, 147.93, 40.15, 0.000, 0.000, 0.000, 15:40:50.525, 1587847250525
132, 212.10, -359.24, 134.50, 10.15, 0.000, 0.000, 0.000, 15:40:50.525, 1587847250525
133, 107.46, -455.52, 28.86, -12.38, 0.000, 0.000, 0.000, 15:40:50.555, 1587847250555
134, 190.44, -370.45, 112.84, 34.20, 0.000, 0.000, 0.000, 15:40:50.555, 1587847250555
135, 228.42, -349.73, 137.82, 30.60, 0.000, 0.000, 0.000, 15:40:50.557, 1587847250557
136, 147.94, -424.06, 59.31, -11.95, 0.000, 0.000, 0.000, 15:40:50.557, 1587847250557
137, 168.11, -397.71, 82.30, 17.73, 0.000, 0.000, 0.000, 15:40:50.558, 1587847250558
138, 237.49, -338.23, 152.12, 38.16, 0.000, 0.000, 0.000, 15:40:50.558, 1587847250558
139, 165.92, -391.71, 81.97, -5.16, 0.000, 0.000, 0.000, 15:40:50.569, 1587847250569
140, 144.04, -412.51, 59.57, 6.69, 0.000, 0.000, 0.000, 15:40:50.569, 1587847250569
141, 222.56, -338.64, 139.92, 38.60, 0.000, 0.000, 0.000, 15:40:50.585, 1587847250585
142, 203.93, -356.65, 119.51, 8.88, 0.000, 0.000, 0.000, 15:40:50.585, 1587847250585
143, 116.39, -439.86, 51.28, -5.25, 0.000, 0.000, 0.000, 15:40:50.585, 1587847250585
144, 200.26, -365.18, 115.03, 30.61, 0.000, 0.000, 0.000, 15:40:50.585, 1587847250585
145, 234.02, -333.13, 148.56, 23.47, 0.000, 0.000, 0.000, 15:40:50.599, 1587847250599
146, 134.23, -419.90, 52.68, -7.08, 0.000, 0.000, 0.000, 15:40:50.599, 1587847250599
147, 153.34, -398.49, 82.12, 20.65, 0.000, 0.000, 0.000, 15:40:50.615, 1587847250615
148, 221.40, -330.96, 142.44, 35.81, 0.000, 0.000, 0.000, 15:40:50.615, 1587847250615
149, 154.95, -393.40, 76.79, 0.99, 0.000, 0.000, 0.000, 15:40:50.616, 1587847250616
150, 124.60, -424.54, 49.00, 5.42, 0.000, 0.000, 0.000, 15:40:50.616, 1587847250616
151, 217.80, -328.90, 142.07, 40.37, 0.000, 0.000, 0.000, 15:40:50.630, 1587847250630
152, 202.89, -347.46, 119.53, 11.49, 0.000, 0.000, 0.000, 15:40:50.630, 1587847250630
153, 131.26, -430.22, 43.66, -6.91, 0.000, 0.000, 0.000, 15:40:50.645, 1587847250645
154, 199.33, -355.97, 120.07, 33.00, 0.000, 0.000, 0.000, 15:40:50.645, 1587847250645
155, 220.09, -333.32, 133.16, 29.34, 0.000, 0.000, 0.000, 15:40:50.646, 1587847250646
156, 137.45, -409.16, 66.22, -12.00, 0.000, 0.000, 0.000, 15:40:50.646, 1587847250646
157, 151.89, -388.55, 79.23, 19.35, 0.000, 0.000, 0.000, 15:40:50.660, 1587847250660
158, 219.20, -324.94, 143.45, 36.51, 0.000, 0.000, 0.000, 15:40:50.660, 1587847250660
159, 152.88, -387.92, 85.24, -0.46, 0.000, 0.000, 0.000, 15:40:50.676, 1587847250676
160, 127.73, -405.84, 51.72, 7.27, 0.000, 0.000, 0.000, 15:40:50.676, 1587847250676
161, 234.72, -317.35, 143.17, 41.07, 0.000, 0.000, 0.000, 15:40:50.677, 1587847250677
162, 200.21, -349.04, 122.24, 12.38, 0.000, 0.000, 0.000, 15:40:50.677, 1587847250677
163, 108.73, -432.59, 34.49, -6.77, 0.000, 0.000, 0.000, 15:40:50.689, 1587847250689
164, 196.65, -351.85, 111.10, 35.93, 0.000, 0.000, 0.000, 15:40:50.689, 1587847250689
165, 204.50, -337.03, 123.72, 25.17, 0.000, 0.000, 0.000, 15:40:50.706, 1587847250706
166, 133.37, -407.98, 55.62, -12.42, 0.000, 0.000, 0.000, 15:40:50.706, 1587847250706
167, 163.67, -372.36, 90.44, 18.78, 0.000, 0.000, 0.000, 15:40:50.707, 1587847250707
168, 214.48, -327.01, 131.95, 32.25, 0.000, 0.000, 0.000, 15:40:50.707, 1587847250707
169, 179.02, -371.19, 79.62, 0.52, 0.000, 0.000, 0.000, 15:40:50.719, 1587847250719
170, 132.35, -410.84, 41.33, 6.40, 0.000, 0.000, 0.000, 15:40:50.719, 1587847250719
171, 214.95, -327.42, 129.20, 38.82, 0.000, 0.000, 0.000, 15:40:50.736, 1587847250736
172, 196.54, -346.63, 106.56, 11.19, 0.000, 0.000, 0.000, 15:40:50.736, 1587847250736
173, 133.23, -406.68, 43.57, -4.77, 0.000, 0.000, 0.000, 15:40:50.739, 1587847250739
174, 187.64, -349.24, 112.35, 33.19, 0.000, 0.000, 0.000, 15:40:50.739, 1587847250739
175, 215.71, -327.23, 136.19, 26.44, 0.000, 0.000, 0.000, 15:40:50.749, 1587847250749
176, 132.85, -393.13, 58.10, -6.60, 0.000, 0.000, 0.000, 15:40:50.749, 1587847250749
177, 158.45, -375.06, 79.36, 21.04, 0.000, 0.000, 0.000, 15:40:50.765, 1587847250765
178, 219.97, -314.56, 141.22, 38.54, 0.000, 0.000, 0.000, 15:40:50.765, 1587847250765
179, 152.88, -373.27, 87.37, 0.23, 0.000, 0.000, 0.000, 15:40:50.766, 1587847250766
180, 115.81, -407.78, 51.97, 2.64, 0.000, 0.000, 0.000, 15:40:50.766, 1587847250766
181, 214.26, -309.91, 149.49, 38.25, 0.000, 0.000, 0.000, 15:40:50.779, 1587847250779
182, 179.94, -340.10, 119.27, 8.21, 0.000, 0.000, 0.000, 15:40:50.779, 1587847250779
183, 101.10, -423.54, 34.78, -5.08, 0.000, 0.000, 0.000, 15:40:50.795, 1587847250795
184, 188.05, -338.29, 113.77, 32.99, 0.000, 0.000, 0.000, 15:40:50.795, 1587847250795
185, 206.07, -320.49, 133.58, 22.96, 0.000, 0.000, 0.000, 15:40:50.796, 1587847250796
186, 119.75, -405.29, 49.47, -9.18, 0.000, 0.000, 0.000, 15:40:50.796, 1587847250796
187, 165.17, -369.49, 82.87, 26.01, 0.000, 0.000, 0.000, 15:40:50.809, 1587847250809
188, 228.14, -307.33, 148.94, 42.05, 0.000, 0.000, 0.000, 15:40:50.809, 1587847250809
189, 154.31, -371.21, 74.65, -5.59, 0.000, 0.000, 0.000, 15:40:50.825, 1587847250825
190, 139.70, -392.91, 52.17, 5.02, 0.000, 0.000, 0.000, 15:40:50.826, 1587847250826
191, 211.01, -315.85, 128.82, 38.30, 0.000, 0.000, 0.000, 15:40:50.827, 1587847250827
192, 191.34, -335.93, 112.75, 10.85, 0.000, 0.000, 0.000, 15:40:50.827, 1587847250827
193, 115.13, -410.76, 34.93, -7.15, 0.000, 0.000, 0.000, 15:40:50.840, 1587847250840
194, 182.27, -338.72, 111.01, 32.34, 0.000, 0.000, 0.000, 15:40:50.840, 1587847250840
195, 215.20, -310.34, 145.17, 30.31, 0.000, 0.000, 0.000, 15:40:50.858, 1587847250858
196, 120.08, -414.13, 47.30, -9.36, 0.000, 0.000, 0.000, 15:40:50.858, 1587847250858
197, 154.13, -366.98, 78.29, 19.86, 0.000, 0.000, 0.000, 15:40:50.859, 1587847250859
198, 215.98, -300.82, 145.45, 39.28, 0.000, 0.000, 0.000, 15:40:50.859, 1587847250859
199, 142.55, -367.52, 81.28, 0.93, 0.000, 0.000, 0.000, 15:40:50.870, 1587847250870
200, 123.08, -387.38, 59.51, 4.77, 0.000, 0.000, 0.000, 15:40:50.870, 1587847250870
0, 191.15, -320.50, 125.80, 39.38, 0.000, 0.000, 0.000, 15:40:50.871, 1587847250871
1, 183.71, -324.35, 119.59, 13.84, 0.000, 0.000, 0.000, 15:40:50.886, 1587847250886
2, 110.25, -388.05, 55.80, -7.69, 0.000, 0.000, 0.000, 15:40:50.886, 1587847250886
3, 170.19, -334.37, 106.84, 32.70, 0.000, 0.000, 0.000, 15:40:50.900, 1587847250900
4, 200.61, -311.06, 131.30, 24.95, 0.000, 0.000, 0.000, 15:40:50.900, 1587847250900
5, 135.01, -377.77, 66.29, -8.86, 0.000, 0.000, 0.000, 15:40:50.915, 1587847250915
6, 151.79, -362.50, 79.33, 18.51, 0.000, 0.000, 0.000, 15:40:50.915, 1587847250915
7, 207.26, -293.20, 152.82, 36.04, 0.000, 0.000, 0.000, 15:40:50.917, 1587847250917
8, 150.79, -358.06, 91.54, -4.65, 0.000, 0.000, 0.000, 15:40:50.917, 1587847250917
9, 108.83, -397.32, 48.18, 2.07, 0.000, 0.000, 0.000, 15:40:50.931, 1587847250931
10, 205.91, -300.00, 141.98, 33.06, 0.000, 0.000, 0.000, 15:40:50.931, 1587847250931
11, 178.10, -328.06, 115.21, 11.55, 0.000, 0.000, 0.000, 15:40:50.933, 1587847250933
12, 113.81, -393.79, 46.37, -2.13, 0.000, 0.000, 0.000, 15:40:50.933, 1587847250933
13, 178.85, -317.58, 123.47, 31.22, 0.000, 0.000, 0.000, 15:40:50.945, 1587847250945
14, 192.41, -305.25, 133.51, 28.18, 0.000, 0.000, 0.000, 15:40:50.945, 1587847250945
15, 111.51, -394.72, 44.99, -3.41, 0.000, 0.000, 0.000, 15:40:50.960, 1587847250960
16, 142.90, -353.90, 81.35, 14.20, 0.000, 0.000, 0.000, 15:40:50.960, 1587847250960
17, 199.66, -291.09, 156.39, 37.05, 0.000, 0.000, 0.000, 15:40:50.962, 1587847250962
18, 132.72, -366.50, 76.19, 1.75, 0.000, 0.000, 0.000, 15:40:50.962, 1587847250962
19, 105.43, -388.75, 58.96, 4.65, 0.000, 0.000, 0.000, 15:40:50.974, 1587847250974
20, 206.69, -288.55, 156.28, 41.76, 0.000, 0.000, 0.000, 15:40:50.974, 1587847250974
21, 180.39, -317.09, 126.81, 12.28, 0.000, 0.000, 0.000, 15:40:50.990, 1587847250990
22, 91.93, -398.84, 40.61, -11.10, 0.000, 0.000, 0.000, 15:40:50.990, 1587847250990
23, 171.70, -321.00, 123.88, 32.59, 0.000, 0.000, 0.000, 15:40:50.991, 1587847250991
24, 193.45, -299.83, 138.16, 23.14, 0.000, 0.000, 0.000, 15:40:50.991, 1587847250991
25, 126.83, -373.78, 61.10, -8.15, 0.000, 0.000, 0.000, 15:40:51.005, 1587847251005
26, 142.93, -349.38, 86.64, 19.37, 0.000, 0.000, 0.000, 15:40:51.005, 1587847251005
27, 204.28, -292.02, 145.18, 34.03, 0.000, 0.000, 0.000, 15:40:51.020, 1587847251020
28, 146.98, -341.27, 88.61, -0.99, 0.000, 0.000, 0.000, 15:40:51.020, 1587847251020
29, 104.72, -389.22, 51.28, 5.87, 0.000, 0.000, 0.000, 15:40:51.021, 1587847251021
30, 200.31, -290.93, 152.89, 41.58, 0.000, 0.000, 0.000, 15:40:51.021, 1587847251021
31, 172.01, -318.94, 121.75, 15.19, 0.000, 0.000, 0.000, 15:40:51.038, 1587847251038
32, 116.78, -373.58, 58.22, -3.17, 0.000, 0.000, 0.000, 15:40:51.038, 1587847251038
33, 166.68, -329.05, 117.63, 35.65, 0.000, 0.000, 0.000, 15:40:51.050, 1587847251050
34, 191.86, -306.07, 134.50, 27.36, 0.000, 0.000, 0.000, 15:40:51.050, 1587847251050
35, 100.23, -385.11, 62.47, -7.34, 0.000, 0.000, 0.000, 15:40:51.051, 1587847251051
36, 114.61, -356.44, 75.83, 18.66, 0.000, 0.000, 0.000, 15:40:51.051, 1587847251051
37, 222.62, -281.40, 165.38, 40.88, 0.000, 0.000, 0.000, 15:40:51.069, 1587847251069
38, 158.84, -348.17, 88.42, -0.69, 0.000, 0.000, 0.000, 15:40:51.069, 1587847251069
39, 107.60, -402.25, 55.30, 3.29, 0.000, 0.000, 0.000, 15:40:51.080, 1587847251080
40, 171.92, -303.40, 153.57, 36.36, 0.000, 0.000, 0.000, 15:40:51.080, 1587847251080
41, 165.06, -306.78, 132.95, 16.34, 0.000, 0.000, 0.000, 15:40:51.082, 1587847251082
42, 119.70, -373.83, 63.29, -2.64, 0.000, 0.000, 0.000, 15:40:51.082, 1587847251082
43, 191.26, -305.79, 132.80, 35.39, 0.000, 0.000, 0.000, 15:40:51.095, 1587847251095
44, 218.03, -281.08, 142.95, 26.42, 0.000, 0.000, 0.000, 15:40:51.095, 1587847251095
45, 91.18, -441.44, 31.00, -5.24, 0.000, 0.000, 0.000, 15:40:51.110, 1587847251110
46, 104.79, -349.99, 87.97, 17.36, 0.000, 0.000, 0.000, 15:40:51.110, 1587847251110
47, 202.00, -243.97, 174.88, 37.59, 0.000, 0.000, 0.000, 15:40:51.111, 1587847251111
48, 166.56, -323.06, 91.86, -5.24, 0.000, 0.000, 0.000, 15:40:51.111, 1587847251111
49, 128.53, -410.69, 69.89, 6.01, 0.000, 0.000, 0.000, 15:40:51.124, 1587847251124
50, 228.23, -258.86, 142.28, 38.29, 0.000, 0.000, 0.000, 15:40:51.124, 1587847251124
51, 146.79, -293.04, 122.49, 13.13, 0.000, 0.000, 0.000, 15:40:51.140, 1587847251140
52, 1.52, -445.32, 35.60, -8.29, 0.000, 0.000, 0.000, 15:40:51.140, 1587847251140
53, 164.25, -363.28, 125.51, 32.52, 0.000, 0.000, 0.000, 15:40:51.140, 1587847251140
54, 267.88, -245.04, 133.44, 26.36, 0.000, 0.000, 0.000, 15:40:51.140, 1587847251140
55, 72.74, -415.96, 71.82, -8.48, 0.000, 0.000, 0.000, 15:40:51.155, 1587847251155
56, 228.28, -352.28, 135.63, 20.78, 0.000, 0.000, 0.000, 15:40:51.155, 1587847251155
57, 249.48, -250.79, 111.09, 39.12, 0.000, 0.000, 0.000, 15:40:51.170, 1587847251170
58, 117.85, -316.66, 102.40, -3.37, 0.000, 0.000, 0.000, 15:40:51.170, 1587847251170
59, 26.65, -447.24, 95.85, 3.38, 0.000, 0.000, 0.000, 15:40:51.171, 1587847251171
60, 256.21, -434.69, 115.21, 35.40, 0.000, 0.000, 0.000, 15:40:51.171, 1587847251171
61, 287.75, -271.79, 132.49, 8.01, 0.000, 0.000, 0.000, 15:40:51.185, 1587847251185
62, 61.30, -420.59, 31.49, -10.18, 0.000, 0.000, 0.000, 15:40:51.185, 1587847251185
63, 196.24, -377.50, 165.20, 26.72, 0.000, 0.000, 0.000, 15:40:51.205, 1587847251205
64, 285.92, -236.71, 156.67, 25.64, 0.000, 0.000, 0.000, 15:40:51.205, 1587847251205
65, 75.38, -382.11, 82.13, -7.72, 0.000, 0.000, 0.000, 15:40:51.207, 1587847251207
66, 143.75, -375.31, 98.44, 19.77, 0.000, 0.000, 0.000, 15:40:51.207, 1587847251207
67, 63.47, -413.69, 124.97, 33.01, 0.000, 0.000, 0.000, 15:40:51.215, 1587847251215
68, 348.99, -249.04, 146.29, -5.25, 0.000, 0.000, 0.000, 15:40:51.215, 1587847251215
69, -29.95, -534.22, -57.24, 4.04, 0.000, 0.000, 0.000, 15:40:51.231, 1587847251231
70, 279.10, -212.71, 281.09, 37.98, 0.000, 0.000, 0.000, 15:40:51.231, 1587847251231
71, 332.77, -185.46, 111.14, 10.08, 0.000, 0.000, 0.000, 15:40:51.233, 1587847251233
72, 144.80, -223.96, 86.06, -6.00, 0.000, 0.000, 0.000, 15:40:51.233, 1587847251233
73, 193.33, -200.12, 11.15, 31.19, 0.000, 0.000, 0.000, 15:40:51.245, 1587847251245
74, 103.48, -214.49, 226.71, 24.13, 0.000, 0.000, 0.000, 15:40:51.245, 1587847251245
75, -111.74, -170.76, 55.96, -9.55, 0.000, 0.000, 0.000, 15:40:51.261, 1587847251261
76, 106.45, -102.37, 11.96, 13.47, 0.000, 0.000, 0.000, 15:40:51.261, 1587847251261
77, 246.00, -18.77, 179.20, 37.94, 0.000, 0.000, 0.000, 15:40:51.264, 1587847251264
78, 103.51, -18.54, 45.35, -1.91, 0.000, 0.000, 0.000, 15:40:51.264, 1587847251264
79, 23.84, -148.54, -27.36, 4.46, 0.000, 0.000, 0.000, 15:40:51.275, 1587847251275
80, 131.23, 9.73, -63.72, 38.52, 0.000, 0.000, 0.000, 15:40:51.275, 1587847251275
81, -97.44, 112.23, 222.82, 14.76, 0.000, 0.000, 0.000, 15:40:51.290, 1587847251290
82, -160.46, -11.68, 107.12, -5.63, 0.000, 0.000, 0.000, 15:40:51.290, 1587847251290
83, 163.04, 61.97, -142.19, 32.75, 0.000, 0.000, 0.000, 15:40:51.291, 1587847251291
84, 166.11, 61.60, -25.99, 27.26, 0.000, 0.000, 0.000, 15:40:51.291, 1587847251291
85, 26.15, 172.53, 165.32, -0.43, 0.000, 0.000, 0.000, 15:40:51.305, 1587847251305
86, -33.33, 79.10, 88.03, 18.71, 0.000, 0.000, 0.000, 15:40:51.305, 1587847251305
87, 13.21, 139.55, 62.72, 40.50, 0.000, 0.000, 0.000, 15:40:51.321, 1587847251321
88, -147.40, 100.22, 21.79, -0.55, 0.000, 0.000, 0.000, 15:40:51.321, 1587847251321
89, -347.20, 39.25, 22.69, 3.18, 0.000, 0.000, 0.000, 15:40:51.323, 1587847251323
90, 214.53, 218.95, 53.25, 42.39, 0.000, 0.000, 0.000, 15:40:51.323, 1587847251323
91, 87.43, 210.99, -72.44, 11.28, 0.000, 0.000, 0.000, 15:40:51.335, 1587847251335
92, 15.75, 87.50, 42.55, -5.69, 0.000, 0.000, 0.000, 15:40:51.335, 1587847251335
93, -82.86, 101.79, 37.58, 31.79, 0.000, 0.000, 0.000, 15:40:51.350, 1587847251350
94, 42.01, 223.58, 85.02, 26.76, 0.000, 0.000, 0.000, 15:40:51.350, 1587847251350
95, -90.15, 187.16, -52.74, -8.16, 0.000, 0.000, 0.000, 15:40:51.352, 1587847251352
96, -267.07, 198.82, 74.62, 19.68, 0.000, 0.000, 0.000, 15:40:51.352, 1587847251352
97, 95.16, 156.52, 33.06, 37.47, 0.000, 0.000, 0.000, 15:40:51.364, 1587847251364
98, 21.40, 199.14, -87.41, -4.26, 0.000, 0.000, 0.000, 15:40:51.364, 1587847251364
99, -62.30, 202.68, 49.08, 3.99, 0.000, 0.000, 0.000, 15:40:51.379, 1587847251379
100, -11.31, 157.67, -50.51, 44.39, 0.000, 0.000, 0.000, 15:40:51.379, 1587847251379
101, 0.72, 260.62, 136.53, 9.07, 0.000, 0.000, 0.000, 15:40:51.380, 1587847251380
102, -96.05, 220.90, 10.22, -5.08, 0.000, 0.000, 0.000, 15:40:51.380, 1587847251380
103, -70.85, 233.89, 25.33, 34.65, 0.000, 0.000, 0.000, 15:40:51.394, 1587847251394
104, 5.94, 226.07, 23.70, 26.74, 0.000, 0.000, 0.000, 15:40:51.394, 1587847251394
105, -212.23, 93.17, -151.02, -7.96, 0.000, 0.000, 0.000, 15:40:51.411, 1587847251411
106, -126.37, 197.54, 16.90, 16.45, 0.000, 0.000, 0.000, 15:40:51.411, 1587847251411
107, 123.80, 319.23, -29.69, 34.44, 0.000, 0.000, 0.000, 15:40:51.412, 1587847251412
108, -92.49, 186.42, 51.27, 2.11, 0.000, 0.000, 0.000, 15:40:51.412, 1587847251412
109, -23.07, 242.79, 83.85, 6.85, 0.000, 0.000, 0.000, 15:40:51.424, 1587847251424
110, -76.87, 323.53, 68.68, 37.22, 0.000, 0.000, 0.000, 15:40:51.424, 1587847251424
111, -13.61, 246.72, 37.35, 12.34, 0.000, 0.000, 0.000, 15:40:51.440, 1587847251440
112, -176.30, 82.51, -181.72, -3.15, 0.000, 0.000, 0.000, 15:40:51.440, 1587847251440
113, -181.54, 229.32, -60.67, 31.39, 0.000, 0.000, 0.000, 15:40:51.441, 1587847251441
114, 87.90, 388.00, 202.66, 25.75, 0.000, 0.000, 0.000, 15:40:51.441, 1587847251441
115, -15.39, 335.70, -27.34, -8.67, 0.000, 0.000, 0.000, 15:40:51.454, 1587847251454
116, -86.44, 283.20, -153.12, 20.98, 0.000, 0.000, 0.000, 15:40:51.454, 1587847251454
117, -118.02, 358.70, 23.64, 36.03, 0.000, 0.000, 0.000, 15:40:51.470, 1587847251470
118, -198.22, 239.86, -199.33, -3.15, 0.000, 0.000, 0.000, 15:40:51.470, 1587847251470
119, -47.88, 273.89, 83.35, 3.94, 0.000, 0.000, 0.000, 15:40:51.471, 1587847251471
120, -142.56, 422.73, 149.50, 38.64, 0.000, 0.000, 0.000, 15:40:51.471, 1587847251471
121, -49.36, 393.05, 32.74, 10.88, 0.000, 0.000, 0.000, 15:40:51.484, 1587847251484
122, -65.63, 326.79, -177.41, -1.36, 0.000, 0.000, 0.000, 15:40:51.484, 1587847251484
123, -78.50, 331.85, -67.02, 34.09, 0.000, 0.000, 0.000, 15:40:51.500, 1587847251500
124, -47.16, 416.56, 55.35, 24.77, 0.000, 0.000, 0.000, 15:40:51.500, 1587847251500
125, -222.32, 316.05, -61.90, -3.67, 0.000, 0.000, 0.000, 15:40:51.501, 1587847251501
126, -237.94, 349.11, -173.00, 20.84, 0.000, 0.000, 0.000, 15:40:51.501, 1587847251501
127, 32.75, 384.76, 41.66, 40.37, 0.000, 0.000, 0.000, 15:40:51.514, 1587847251514
128, -139.84, 414.00, -27.65, -1.41, 0.000, 0.000, 0.000, 15:40:51.514, 1587847251514
129, -141.99, 322.24, -103.39, 8.50, 0.000, 0.000, 0.000, 15:40:51.530, 1587847251530
130, -117.30, 422.23, 28.28, 37.89, 0.000, 0.000, 0.000, 15:40:51.530, 1587847251530
131, -130.87, 468.35, 41.50, 11.84, 0.000, 0.000, 0.000, 15:40:51.530, 1587847251530
132, -143.50, 357.72, -238.00, -3.48, 0.000, 0.000, 0.000, 15:40:51.530, 1587847251530
133, -100.39, 449.04, -0.89, 34.70, 0.000, 0.000, 0.000, 15:40:51.545, 1587847251545
134, -102.28, 413.72, -96.28, 22.64, 0.000, 0.000, 0.000, 15:40:51.545, 1587847251545
135, -200.55, 407.62, -36.77, -4.17, 0.000, 0.000, 0.000, 15:40:51.576, 1587847251576
136, -51.02, 453.56, -91.56, 21.06, 0.000, 0.000, 0.000, 15:40:51.576, 1587847251576
137, -80.12, 525.04, 13.38, 35.61, 0.000, 0.000, 0.000, 15:40:51.576, 1587847251576
138, -274.08, 376.21, -57.58, 3.09, 0.000, 0.000, 0.000, 15:40:51.576, 1587847251576
139, -61.07, 401.71, -250.46, 3.96, 0.000, 0.000, 0.000, 15:40:51.577, 1587847251577
140, -38.41, 523.10, 21.20, 42.20, 0.000, 0.000, 0.000, 15:40:51.577, 1587847251577
141, -244.65, 457.36, 44.59, 13.98, 0.000, 0.000, 0.000, 15:40:51.578, 1587847251578
142, -173.94, 440.86, -134.80, -6.28, 0.000, 0.000, 0.000, 15:40:51.578, 1587847251578
143, -56.98, 499.40, -69.07, 38.15, 0.000, 0.000, 0.000, 15:40:51.589, 1587847251589
144, -83.97, 469.29, -157.68, 26.48, 0.000, 0.000, 0.000, 15:40:51.589, 1587847251589
145, -143.26, 389.72, -190.98, -8.50, 0.000, 0.000, 0.000, 15:40:51.604, 1587847251604
146, -129.36, 502.79, -23.45, 20.69, 0.000, 0.000, 0.000, 15:40:51.604, 1587847251604
147, -164.33, 504.47, 42.26, 37.77, 0.000, 0.000, 0.000, 15:40:51.619, 1587847251619
148, -138.78, 432.24, -200.52, -2.90, 0.000, 0.000, 0.000, 15:40:51.619, 1587847251619
149, -98.61, 422.10, -116.96, 8.73, 0.000, 0.000, 0.000, 15:40:51.620, 1587847251620
150, -193.24, 467.51, 14.00, 42.69, 0.000, 0.000, 0.000, 15:40:51.620, 1587847251620
151, -246.09, 465.80, -75.70, 10.31, 0.000, 0.000, 0.000, 15:40:51.634, 1587847251634
152, -44.46, 449.18, -131.00, -5.11, 0.000, 0.000, 0.000, 15:40:51.634, 1587847251634
153, -55.11, 440.89, -109.32, 36.36, 0.000, 0.000, 0.000, 15:40:51.650, 1587847251650
154, -223.42, 400.74, -71.12, 28.56, 0.000, 0.000, 0.000, 15:40:51.650, 1587847251650
155, -117.66, 454.41, 14.71, -4.74, 0.000, 0.000, 0.000, 15:40:51.651, 1587847251651
156, -100.48, 428.27, -166.50, 25.56, 0.000, 0.000, 0.000, 15:40:51.651, 1587847251651
157, -117.03, 446.17, -56.33, 36.21, 0.000, 0.000, 0.000, 15:40:51.666, 1587847251666
158, -52.18, 437.53, -152.00, -0.21, 0.000, 0.000, 0.000, 15:40:51.666, 1587847251666
159, -226.17, 369.23, -153.14, 8.58, 0.000, 0.000, 0.000, 15:40:51.679, 1587847251679
160, -119.91, 416.56, -21.25, 41.44, 0.000, 0.000, 0.000, 15:40:51.679, 1587847251679
161, -35.46, 467.21, 35.68, 16.07, 0.000, 0.000, 0.000, 15:40:51.680, 1587847251680
162, -149.63, 326.55, -88.21, -2.92, 0.000, 0.000, 0.000, 15:40:51.680, 1587847251680
163, -42.03, 396.19, -107.11, 37.02, 0.000, 0.000, 0.000, 15:40:51.695, 1587847251695
164, -51.42, 488.50, 33.12, 25.74, 0.000, 0.000, 0.000, 15:40:51.695, 1587847251695
165, -234.42, 347.56, -103.75, -8.76, 0.000, 0.000, 0.000, 15:40:51.710, 1587847251710
166, -302.62, 339.66, -149.54, 21.36, 0.000, 0.000, 0.000, 15:40:51.710, 1587847251710
167, -29.81, 429.06, -68.50, 38.21, 0.000, 0.000, 0.000, 15:40:51.711, 1587847251711
168, 8.10, 295.39, -273.20, -1.25, 0.000, 0.000, 0.000, 15:40:51.711, 1587847251711
169, -106.54, 423.83, 99.10, 4.25, 0.000, 0.000, 0.000, 15:40:51.724, 1587847251724
170, -35.91, 457.73, 65.59, 39.61, 0.000, 0.000, 0.000, 15:40:51.724, 1587847251724
171, -120.75, 376.07, -31.51, 13.85, 0.000, 0.000, 0.000, 15:40:51.740, 1587847251740
172, -287.47, 262.99, -165.53, -5.44, 0.000, 0.000, 0.000, 15:40:51.740, 1587847251740
173, -136.03, 363.44, -106.85, 35.60, 0.000, 0.000, 0.000, 15:40:51.741, 1587847251741
174, 79.12, 415.32, -85.73, 24.13, 0.000, 0.000, 0.000, 15:40:51.741, 1587847251741
175, -64.21, 317.34, 28.82, -6.87, 0.000, 0.000, 0.000, 15:40:51.755, 1587847251755
176, -90.34, 308.26, -53.02, 25.25, 0.000, 0.000, 0.000, 15:40:51.755, 1587847251755
177, -43.95, 371.10, -26.14, 37.58, 0.000, 0.000, 0.000, 15:40:51.771, 1587847251771
178, -184.33, 266.42, -66.31, -2.37, 0.000, 0.000, 0.000, 15:40:51.771, 1587847251771
179, -231.56, 230.13, -155.45, 4.68, 0.000, 0.000, 0.000, 15:40:51.772, 1587847251772
180, -37.77, 318.36, -2.32, 34.06, 0.000, 0.000, 0.000, 15:40:51.772, 1587847251772
181, 92.20, 415.34, 103.79, 15.00, 0.000, 0.000, 0.000, 15:40:51.784, 1587847251784
182, -176.98, 260.74, -180.72, -2.62, 0.000, 0.000, 0.000, 15:40:51.784, 1587847251784
183, -59.74, 302.40, -22.04, 33.31, 0.000, 0.000, 0.000, 15:40:51.800, 1587847251800
184, -18.75, 327.51, 41.32, 28.57, 0.000, 0.000, 0.000, 15:40:51.800, 1587847251800
185, -138.12, 249.58, -47.95, -7.41, 0.000, 0.000, 0.000, 15:40:51.807, 1587847251807
186, -129.39, 221.53, -131.07, 21.59, 0.000, 0.000, 0.000, 15:40:51.807, 1587847251807
187, 94.37, 344.68, 87.13, 35.06, 0.000, 0.000, 0.000, 15:40:51.815, 1587847251815
188, -141.34, 255.80, -109.76, -2.50, 0.000, 0.000, 0.000, 15:40:51.815, 1587847251815
189, -165.02, 181.91, 5.92, 6.56, 0.000, 0.000, 0.000, 15:40:51.830, 1587847251830
190, 24.52, 314.61, 112.85, 39.30, 0.000, 0.000, 0.000, 15:40:51.830, 1587847251830
191, 42.15, 295.71, -39.82, 10.80, 0.000, 0.000, 0.000, 15:40:51.832, 1587847251832
192, -159.93, 157.60, -125.51, -3.48, 0.000, 0.000, 0.000, 15:40:51.832, 1587847251832
193, -51.03, 237.80, -61.93, 32.57, 0.000, 0.000, 0.000, 15:40:51.844, 1587847251844
194, -41.71, 207.41, 108.13, 26.06, 0.000, 0.000, 0.000, 15:40:51.844, 1587847251844
195, -26.41, 215.36, -91.71, -6.71, 0.000, 0.000, 0.000, 15:40:51.860, 1587847251860
196, 12.01, 238.58, 46.88, 21.04, 0.000, 0.000, 0.000, 15:40:51.860, 1587847251860
197, -21.60, 249.89, 40.65, 39.11, 0.000, 0.000, 0.000, 15:40:51.861, 1587847251861
198, -171.91, 152.61, -40.42, 1.44, 0.000, 0.000, 0.000, 15:40:51.861, 1587847251861
199, -52.09, 145.35, -40.02, 7.06, 0.000, 0.000, 0.000, 15:40:51.875, 1587847251875
200, 56.50, 242.45, 64.07, 38.88, 0.000, 0.000, 0.000, 15:40:51.875, 1587847251875
0, -63.76, 186.45, 73.49, 15.08, 0.000, 0.000, 0.000, 15:40:51.876, 1587847251876
1, -46.05, 161.38, -30.19, -1.19, 0.000, 0.000, 0.000, 15:40:51.889, 1587847251889
2, 9.72, 194.69, -2.64, 32.92, 0.000, 0.000, 0.000, 15:40:51.889, 1587847251889
3, 10.65, 205.57, 77.95, 31.61, 0.000, 0.000, 0.000, 15:40:51.907, 1587847251907
4, -77.65, 100.30, -22.25, -4.24, 0.000, 0.000, 0.000, 15:40:51.907, 1587847251907
5, -41.91, 134.93, 9.52, 17.93, 0.000, 0.000, 0.000, 15:40:51.908, 1587847251908
6, 35.13, 194.28, 74.83, 35.64, 0.000, 0.000, 0.000, 15:40:51.908, 1587847251908
